wavelength_axis,light_level,mean_wavelength
1230.0,-68.46,1302.965
1230.02,-68.15,
1230.04,-64.56,
1230.06,-61.92,
1230.08,-63.13,
1230.1,-65.58,
1230.12,-74.28,
1230.14,-210.0,
1230.16,-65.35,
1230.18,-63.19,
1230.2,-65.88,
1230.22,-210.0,
1230.24,-210.0,
1230.26,-210.0,
1230.28,-210.0,
1230.3,-66.9,
1230.32,-68.94,
1230.34,-210.0,
1230.36,-210.0,
1230.38,-210.0,
1230.4,-69.39,
1230.42,-66.25,
1230.44,-64.74,
1230.46,-70.07,
1230.48,-210.0,
1230.5,-210.0,
1230.52,-65.68,
1230.54,-63.79,
1230.56,-73.39,
1230.58,-210.0,
1230.6,-210.0,
1230.62,-210.0,
1230.64,-65.62,
1230.66,-65.02,
1230.68,-68.48,
1230.7,-210.0,
1230.72,-210.0,
1230.74,-73.86,
1230.76,-66.2,
1230.78,-65.15,
1230.8,-66.73,
1230.82,-210.0,
1230.84,-210.0,
1230.86,-210.0,
1230.88,-66.12,
1230.9,-66.36,
1230.92,-210.0,
1230.94,-210.0,
1230.96,-210.0,
1230.98,-210.0,
1231.0,-75.53,
1231.02,-69.26,
1231.04,-210.0,
1231.06,-210.0,
1231.08,-210.0,
1231.1,-73.25,
1231.12,-67.15,
1231.14,-68.94,
1231.16,-210.0,
1231.18,-210.0,
1231.2,-210.0,
1231.22,-68.89,
1231.24,-64.48,
1231.26,-66.6,
1231.28,-69.2,
1231.3,-210.0,
1231.32,-210.0,
1231.34,-64.02,
1231.36,-63.61,
1231.38,-66.23,
1231.4,-71.36,
1231.42,-210.0,
1231.44,-69.29,
1231.46,-65.84,
1231.48,-63.72,
1231.5,-65.88,
1231.52,-210.0,
1231.54,-210.0,
1231.56,-72.55,
1231.58,-66.77,
1231.6,-64.51,
1231.62,-74.84,
1231.64,-210.0,
1231.66,-210.0,
1231.68,-210.0,
1231.7,-66.36,
1231.72,-65.83,
1231.74,-67.22,
1231.76,-210.0,
1231.78,-210.0,
1231.8,-74.15,
1231.82,-64.63,
1231.84,-64.03,
1231.86,-64.81,
1231.88,-68.53,
1231.9,-74.22,
1231.92,-70.09,
1231.94,-63.87,
1231.96,-62.43,
1231.98,-63.99,
1232.0,-69.94,
1232.02,-73.62,
1232.04,-68.16,
1232.06,-64.42,
1232.08,-64.26,
1232.1,-66.48,
1232.12,-210.0,
1232.14,-210.0,
1232.16,-66.63,
1232.18,-64.2,
1232.2,-64.26,
1232.22,-70.14,
1232.24,-69.8,
1232.26,-210.0,
1232.28,-210.0,
1232.3,-67.08,
1232.32,-64.33,
1232.34,-71.23,
1232.36,-210.0,
1232.38,-210.0,
1232.4,-65.56,
1232.42,-67.34,
1232.44,-65.04,
1232.46,-75.28,
1232.48,-210.0,
1232.5,-210.0,
1232.52,-68.3,
1232.54,-64.32,
1232.56,-67.79,
1232.58,-210.0,
1232.6,-76.06,
1232.62,-70.72,
1232.64,-64.72,
1232.66,-63.7,
1232.68,-64.34,
1232.7,-78.39,
1232.72,-210.0,
1232.74,-68.34,
1232.76,-63.86,
1232.78,-63.47,
1232.8,-66.72,
1232.82,-210.0,
1232.84,-210.0,
1232.86,-210.0,
1232.88,-68.32,
1232.9,-74.76,
1232.92,-210.0,
1232.94,-210.0,
1232.96,-210.0,
1232.98,-210.0,
1233.0,-71.89,
1233.02,-66.55,
1233.04,-69.19,
1233.06,-77.92,
1233.08,-70.36,
1233.1,-65.47,
1233.12,-64.05,
1233.141,-66.07,
1233.16,-74.12,
1233.18,-210.0,
1233.2,-210.0,
1233.22,-68.91,
1233.24,-65.98,
1233.26,-66.25,
1233.281,-70.43,
1233.3,-210.0,
1233.32,-88.7,
1233.34,-65.97,
1233.36,-67.12,
1233.38,-210.0,
1233.401,-77.95,
1233.421,-73.82,
1233.44,-71.13,
1233.46,-63.99,
1233.48,-64.71,
1233.5,-67.45,
1233.521,-75.64,
1233.541,-68.3,
1233.561,-64.68,
1233.58,-63.89,
1233.6,-67.6,
1233.62,-71.98,
1233.641,-68.7,
1233.661,-210.0,
1233.681,-66.08,
1233.701,-63.72,
1233.72,-64.99,
1233.74,-72.15,
1233.76,-210.0,
1233.781,-70.97,
1233.801,-65.25,
1233.821,-66.22,
1233.841,-77.27,
1233.86,-210.0,
1233.88,-210.0,
1233.901,-70.83,
1233.921,-64.65,
1233.941,-64.4,
1233.961,-70.22,
1233.981,-74.7,
1234.001,-69.73,
1234.021,-66.69,
1234.041,-66.02,
1234.061,-65.41,
1234.081,-75.51,
1234.101,-210.0,
1234.121,-210.0,
1234.141,-69.98,
1234.161,-67.24,
1234.181,-67.14,
1234.201,-210.0,
1234.221,-90.98,
1234.241,-210.0,
1234.261,-65.7,
1234.281,-64.67,
1234.301,-66.33,
1234.321,-210.0,
1234.341,-75.36,
1234.361,-64.63,
1234.381,-62.97,
1234.401,-65.26,
1234.421,-76.4,
1234.441,-210.0,
1234.461,-210.0,
1234.481,-72.53,
1234.501,-65.57,
1234.521,-70.11,
1234.541,-210.0,
1234.561,-210.0,
1234.581,-73.41,
1234.601,-66.45,
1234.621,-69.12,
1234.641,-72.54,
1234.661,-210.0,
1234.681,-210.0,
1234.701,-210.0,
1234.721,-210.0,
1234.741,-69.61,
1234.761,-210.0,
1234.781,-210.0,
1234.801,-210.0,
1234.821,-210.0,
1234.841,-67.22,
1234.861,-64.9,
1234.881,-69.46,
1234.901,-210.0,
1234.921,-210.0,
1234.941,-72.33,
1234.961,-67.38,
1234.981,-210.0,
1235.001,-210.0,
1235.021,-210.0,
1235.041,-210.0,
1235.061,-210.0,
1235.081,-69.94,
1235.101,-69.06,
1235.121,-210.0,
1235.141,-210.0,
1235.161,-210.0,
1235.181,-68.62,
1235.201,-70.65,
1235.221,-210.0,
1235.241,-210.0,
1235.261,-210.0,
1235.281,-210.0,
1235.301,-210.0,
1235.321,-210.0,
1235.341,-210.0,
1235.361,-210.0,
1235.381,-210.0,
1235.401,-210.0,
1235.421,-210.0,
1235.441,-210.0,
1235.461,-210.0,
1235.481,-210.0,
1235.501,-210.0,
1235.521,-210.0,
1235.541,-69.78,
1235.561,-70.38,
1235.581,-210.0,
1235.601,-210.0,
1235.621,-210.0,
1235.641,-210.0,
1235.661,-66.42,
1235.681,-68.7,
1235.701,-70.9,
1235.721,-210.0,
1235.741,-210.0,
1235.761,-65.59,
1235.781,-64.36,
1235.801,-65.99,
1235.821,-71.72,
1235.841,-210.0,
1235.861,-210.0,
1235.881,-64.96,
1235.901,-62.93,
1235.921,-65.68,
1235.941,-210.0,
1235.961,-210.0,
1235.981,-210.0,
1236.001,-66.23,
1236.021,-69.11,
1236.041,-67.57,
1236.061,-210.0,
1236.081,-210.0,
1236.101,-72.21,
1236.121,-64.52,
1236.141,-65.75,
1236.161,-82.15,
1236.181,-210.0,
1236.201,-210.0,
1236.221,-68.82,
1236.241,-63.79,
1236.261,-62.95,
1236.281,-64.49,
1236.301,-69.57,
1236.321,-69.27,
1236.341,-64.12,
1236.361,-62.59,
1236.381,-64.11,
1236.401,-71.88,
1236.421,-67.65,
1236.441,-66.28,
1236.461,-64.51,
1236.481,-62.42,
1236.501,-63.07,
1236.521,-67.64,
1236.541,-74.57,
1236.561,-70.09,
1236.581,-63.34,
1236.601,-62.48,
1236.621,-65.51,
1236.641,-71.02,
1236.661,-67.1,
1236.681,-65.22,
1236.701,-63.14,
1236.721,-62.45,
1236.741,-63.92,
1236.761,-70.37,
1236.781,-68.13,
1236.801,-64.96,
1236.821,-63.31,
1236.841,-64.54,
1236.861,-71.92,
1236.881,-74.74,
1236.901,-67.14,
1236.921,-65.49,
1236.941,-63.63,
1236.961,-62.4,
1236.981,-64.88,
1237.001,-65.68,
1237.021,-63.93,
1237.041,-62.12,
1237.061,-61.51,
1237.081,-65.05,
1237.101,-67.93,
1237.121,-66.39,
1237.141,-62.41,
1237.161,-63.69,
1237.181,-64.0,
1237.201,-64.26,
1237.221,-70.21,
1237.241,-68.19,
1237.261,-66.59,
1237.281,-63.85,
1237.301,-65.21,
1237.321,-72.2,
1237.341,-69.89,
1237.361,-69.57,
1237.381,-64.03,
1237.401,-65.14,
1237.421,-70.52,
1237.441,-67.97,
1237.461,-74.35,
1237.481,-89.49,
1237.501,-65.73,
1237.521,-65.27,
1237.541,-67.42,
1237.561,-210.0,
1237.581,-210.0,
1237.601,-70.07,
1237.621,-66.51,
1237.641,-84.86,
1237.661,-210.0,
1237.681,-84.7,
1237.701,-210.0,
1237.721,-74.65,
1237.741,-66.26,
1237.761,-70.22,
1237.781,-210.0,
1237.801,-210.0,
1237.821,-210.0,
1237.841,-68.21,
1237.861,-70.89,
1237.881,-210.0,
1237.901,-210.0,
1237.921,-210.0,
1237.941,-210.0,
1237.961,-72.89,
1237.981,-69.59,
1238.001,-210.0,
1238.021,-210.0,
1238.041,-210.0,
1238.061,-81.49,
1238.081,-69.73,
1238.101,-210.0,
1238.121,-210.0,
1238.141,-210.0,
1238.161,-74.1,
1238.181,-74.99,
1238.201,-70.02,
1238.221,-73.49,
1238.241,-210.0,
1238.261,-210.0,
1238.281,-72.12,
1238.301,-65.33,
1238.321,-67.3,
1238.341,-78.19,
1238.361,-210.0,
1238.381,-83.49,
1238.401,-63.74,
1238.421,-65.34,
1238.441,-71.67,
1238.461,-74.74,
1238.481,-210.0,
1238.501,-210.0,
1238.521,-68.78,
1238.541,-66.01,
1238.561,-71.39,
1238.581,-210.0,
1238.601,-210.0,
1238.621,-67.03,
1238.641,-64.45,
1238.661,-68.34,
1238.681,-76.28,
1238.701,-75.48,
1238.721,-81.39,
1238.741,-67.87,
1238.761,-64.34,
1238.781,-64.52,
1238.801,-69.15,
1238.821,-72.28,
1238.841,-66.18,
1238.861,-63.47,
1238.881,-64.88,
1238.901,-69.72,
1238.921,-67.57,
1238.941,-66.74,
1238.961,-69.77,
1238.981,-64.27,
1239.001,-64.41,
1239.021,-69.23,
1239.041,-69.06,
1239.061,-69.57,
1239.081,-64.4,
1239.101,-64.59,
1239.121,-67.77,
1239.141,-79.91,
1239.161,-74.61,
1239.181,-65.72,
1239.201,-65.84,
1239.221,-62.75,
1239.241,-63.15,
1239.261,-66.72,
1239.281,-67.0,
1239.301,-65.09,
1239.321,-63.25,
1239.341,-62.91,
1239.361,-65.53,
1239.381,-77.01,
1239.401,-67.19,
1239.421,-63.29,
1239.441,-63.67,
1239.461,-64.5,
1239.481,-65.34,
1239.501,-69.45,
1239.521,-69.91,
1239.541,-64.74,
1239.561,-64.06,
1239.581,-67.45,
1239.601,-74.2,
1239.621,-71.68,
1239.641,-65.56,
1239.661,-62.72,
1239.681,-63.45,
1239.701,-64.77,
1239.721,-66.87,
1239.741,-66.38,
1239.761,-65.28,
1239.781,-64.34,
1239.801,-63.56,
1239.821,-70.17,
1239.841,-210.0,
1239.861,-67.25,
1239.881,-64.06,
1239.901,-63.42,
1239.921,-68.62,
1239.941,-70.4,
1239.961,-70.6,
1239.981,-68.83,
1240.001,-63.87,
1240.021,-66.48,
1240.041,-68.21,
1240.061,-66.79,
1240.081,-66.71,
1240.101,-64.39,
1240.121,-64.52,
1240.141,-64.46,
1240.161,-71.65,
1240.181,-68.83,
1240.201,-66.66,
1240.221,-68.29,
1240.241,-65.76,
1240.261,-70.03,
1240.281,-74.64,
1240.301,-71.11,
1240.321,-210.0,
1240.341,-79.49,
1240.361,-68.7,
1240.381,-68.64,
1240.401,-83.65,
1240.421,-210.0,
1240.441,-210.0,
1240.461,-210.0,
1240.481,-210.0,
1240.501,-210.0,
1240.521,-210.0,
1240.541,-210.0,
1240.561,-75.22,
1240.581,-70.11,
1240.601,-70.67,
1240.621,-70.53,
1240.641,-73.52,
1240.661,-210.0,
1240.681,-210.0,
1240.701,-210.0,
1240.721,-210.0,
1240.741,-210.0,
1240.761,-210.0,
1240.781,-210.0,
1240.801,-210.0,
1240.821,-210.0,
1240.841,-210.0,
1240.861,-210.0,
1240.881,-210.0,
1240.901,-210.0,
1240.921,-210.0,
1240.941,-72.26,
1240.961,-70.22,
1240.981,-210.0,
1241.001,-67.51,
1241.021,-66.09,
1241.041,-74.02,
1241.061,-210.0,
1241.081,-210.0,
1241.101,-66.91,
1241.121,-67.11,
1241.141,-68.29,
1241.161,-66.53,
1241.181,-67.51,
1241.201,-68.8,
1241.221,-70.43,
1241.241,-66.34,
1241.261,-65.88,
1241.281,-75.58,
1241.302,-72.36,
1241.321,-67.93,
1241.341,-65.53,
1241.361,-66.68,
1241.381,-70.51,
1241.401,-71.18,
1241.422,-67.19,
1241.442,-64.33,
1241.461,-65.21,
1241.481,-66.62,
1241.501,-67.65,
1241.521,-70.37,
1241.542,-68.7,
1241.562,-64.2,
1241.582,-63.19,
1241.601,-66.01,
1241.621,-71.13,
1241.641,-69.51,
1241.661,-64.98,
1241.682,-64.78,
1241.702,-66.46,
1241.722,-68.57,
1241.742,-66.93,
1241.761,-69.92,
1241.781,-67.54,
1241.802,-67.09,
1241.822,-67.09,
1241.842,-74.21,
1241.862,-68.77,
1241.882,-69.46,
1241.901,-64.63,
1241.922,-64.95,
1241.942,-69.07,
1241.962,-68.04,
1241.982,-71.12,
1242.002,-67.24,
1242.022,-69.71,
1242.042,-70.2,
1242.062,-67.22,
1242.082,-69.09,
1242.102,-210.0,
1242.122,-210.0,
1242.142,-210.0,
1242.162,-210.0,
1242.182,-210.0,
1242.202,-210.0,
1242.222,-210.0,
1242.242,-210.0,
1242.262,-210.0,
1242.282,-210.0,
1242.302,-90.42,
1242.322,-76.69,
1242.342,-210.0,
1242.362,-210.0,
1242.382,-74.52,
1242.402,-210.0,
1242.422,-210.0,
1242.442,-210.0,
1242.462,-210.0,
1242.482,-210.0,
1242.502,-210.0,
1242.522,-210.0,
1242.542,-210.0,
1242.562,-210.0,
1242.582,-210.0,
1242.602,-210.0,
1242.622,-210.0,
1242.642,-210.0,
1242.662,-210.0,
1242.682,-210.0,
1242.702,-210.0,
1242.722,-210.0,
1242.742,-77.06,
1242.762,-210.0,
1242.782,-210.0,
1242.802,-210.0,
1242.822,-210.0,
1242.842,-210.0,
1242.862,-210.0,
1242.882,-210.0,
1242.902,-210.0,
1242.922,-210.0,
1242.942,-210.0,
1242.962,-210.0,
1242.982,-210.0,
1243.002,-210.0,
1243.022,-210.0,
1243.042,-210.0,
1243.062,-210.0,
1243.082,-210.0,
1243.102,-210.0,
1243.122,-210.0,
1243.142,-210.0,
1243.162,-68.13,
1243.182,-75.72,
1243.202,-72.27,
1243.222,-75.72,
1243.242,-72.31,
1243.262,-74.3,
1243.282,-210.0,
1243.302,-75.49,
1243.322,-210.0,
1243.342,-72.84,
1243.362,-210.0,
1243.382,-74.26,
1243.402,-73.17,
1243.422,-76.4,
1243.442,-74.71,
1243.462,-210.0,
1243.482,-69.35,
1243.502,-70.27,
1243.522,-67.29,
1243.542,-67.21,
1243.562,-69.12,
1243.582,-71.77,
1243.602,-67.57,
1243.622,-67.24,
1243.642,-68.77,
1243.662,-75.82,
1243.682,-71.12,
1243.702,-68.07,
1243.722,-68.36,
1243.742,-67.11,
1243.762,-69.65,
1243.782,-73.89,
1243.802,-73.01,
1243.822,-67.59,
1243.842,-68.0,
1243.862,-66.76,
1243.882,-69.55,
1243.902,-68.65,
1243.922,-75.77,
1243.942,-69.62,
1243.962,-69.18,
1243.982,-70.23,
1244.002,-70.04,
1244.022,-70.5,
1244.042,-65.99,
1244.062,-65.16,
1244.082,-65.39,
1244.102,-66.48,
1244.122,-67.5,
1244.142,-69.66,
1244.162,-64.71,
1244.182,-65.46,
1244.202,-65.64,
1244.222,-68.6,
1244.242,-68.73,
1244.262,-66.71,
1244.282,-66.23,
1244.302,-67.34,
1244.322,-69.15,
1244.342,-67.36,
1244.362,-70.69,
1244.382,-70.1,
1244.402,-68.38,
1244.422,-78.33,
1244.442,-69.73,
1244.462,-210.0,
1244.482,-64.95,
1244.502,-64.06,
1244.522,-64.35,
1244.542,-65.23,
1244.562,-64.61,
1244.582,-64.66,
1244.602,-64.7,
1244.622,-63.88,
1244.642,-64.96,
1244.662,-64.39,
1244.682,-64.73,
1244.702,-64.25,
1244.722,-64.73,
1244.742,-65.79,
1244.762,-65.06,
1244.782,-66.32,
1244.802,-66.58,
1244.822,-64.08,
1244.842,-64.55,
1244.862,-65.03,
1244.882,-66.56,
1244.902,-65.02,
1244.922,-64.38,
1244.942,-63.99,
1244.962,-63.79,
1244.982,-64.39,
1245.002,-63.43,
1245.022,-64.28,
1245.042,-64.37,
1245.062,-64.25,
1245.082,-66.15,
1245.102,-65.28,
1245.122,-65.66,
1245.142,-64.73,
1245.162,-64.24,
1245.182,-65.44,
1245.202,-65.7,
1245.222,-64.93,
1245.242,-65.4,
1245.262,-68.37,
1245.282,-64.93,
1245.302,-64.54,
1245.322,-65.82,
1245.342,-66.46,
1245.362,-63.83,
1245.382,-63.12,
1245.402,-63.2,
1245.422,-63.81,
1245.442,-63.41,
1245.462,-63.96,
1245.482,-63.8,
1245.502,-63.66,
1245.522,-64.45,
1245.542,-64.26,
1245.562,-65.05,
1245.582,-65.42,
1245.602,-65.81,
1245.622,-65.28,
1245.642,-66.51,
1245.662,-66.06,
1245.682,-68.26,
1245.702,-66.74,
1245.722,-65.53,
1245.742,-66.13,
1245.762,-65.16,
1245.782,-66.92,
1245.802,-65.18,
1245.822,-63.15,
1245.842,-63.79,
1245.862,-65.4,
1245.882,-71.54,
1245.902,-66.28,
1245.922,-63.68,
1245.942,-64.0,
1245.962,-65.0,
1245.982,-75.3,
1246.002,-65.64,
1246.022,-63.31,
1246.042,-64.22,
1246.062,-64.05,
1246.082,-65.32,
1246.102,-64.76,
1246.122,-65.03,
1246.142,-64.02,
1246.162,-63.06,
1246.182,-64.59,
1246.202,-69.71,
1246.222,-69.49,
1246.242,-63.6,
1246.262,-62.29,
1246.282,-63.2,
1246.302,-65.31,
1246.322,-64.75,
1246.342,-63.92,
1246.362,-63.31,
1246.382,-63.97,
1246.402,-67.8,
1246.422,-67.04,
1246.442,-65.03,
1246.462,-63.26,
1246.482,-63.54,
1246.502,-64.49,
1246.522,-79.92,
1246.542,-210.0,
1246.562,-81.85,
1246.582,-66.57,
1246.602,-65.69,
1246.622,-67.26,
1246.642,-74.61,
1246.662,-69.79,
1246.682,-64.41,
1246.702,-63.95,
1246.722,-66.35,
1246.742,-210.0,
1246.762,-74.27,
1246.782,-65.18,
1246.802,-65.15,
1246.822,-65.07,
1246.842,-75.94,
1246.862,-71.18,
1246.882,-66.27,
1246.902,-64.02,
1246.922,-64.83,
1246.942,-210.0,
1246.962,-74.81,
1246.982,-71.09,
1247.002,-66.27,
1247.022,-64.57,
1247.042,-68.69,
1247.062,-78.92,
1247.082,-210.0,
1247.102,-72.57,
1247.122,-65.68,
1247.142,-66.32,
1247.162,-68.88,
1247.182,-80.04,
1247.202,-73.69,
1247.222,-65.08,
1247.242,-64.38,
1247.262,-68.25,
1247.282,-210.0,
1247.302,-210.0,
1247.322,-65.89,
1247.342,-63.77,
1247.362,-66.78,
1247.382,-71.99,
1247.402,-210.0,
1247.422,-67.4,
1247.442,-65.6,
1247.462,-68.14,
1247.482,-210.0,
1247.502,-210.0,
1247.522,-69.03,
1247.542,-63.68,
1247.562,-62.97,
1247.582,-63.39,
1247.602,-64.47,
1247.622,-69.32,
1247.642,-64.83,
1247.662,-63.59,
1247.682,-63.56,
1247.702,-65.01,
1247.722,-69.38,
1247.742,-67.24,
1247.762,-64.28,
1247.782,-63.43,
1247.802,-66.5,
1247.822,-210.0,
1247.842,-78.01,
1247.862,-65.73,
1247.882,-66.47,
1247.902,-69.41,
1247.922,-210.0,
1247.942,-210.0,
1247.962,-65.65,
1247.982,-65.21,
1248.002,-69.38,
1248.022,-210.0,
1248.042,-210.0,
1248.062,-210.0,
1248.082,-73.67,
1248.102,-69.18,
1248.122,-71.92,
1248.142,-210.0,
1248.162,-210.0,
1248.182,-93.43,
1248.202,-67.29,
1248.222,-70.7,
1248.242,-210.0,
1248.262,-210.0,
1248.282,-210.0,
1248.302,-71.22,
1248.322,-210.0,
1248.342,-210.0,
1248.362,-210.0,
1248.382,-210.0,
1248.402,-72.26,
1248.422,-70.53,
1248.442,-74.26,
1248.462,-210.0,
1248.482,-210.0,
1248.502,-71.53,
1248.522,-69.8,
1248.542,-72.45,
1248.562,-210.0,
1248.582,-210.0,
1248.602,-210.0,
1248.622,-210.0,
1248.642,-210.0,
1248.662,-210.0,
1248.682,-210.0,
1248.702,-210.0,
1248.722,-210.0,
1248.742,-210.0,
1248.762,-210.0,
1248.782,-210.0,
1248.802,-210.0,
1248.822,-210.0,
1248.842,-82.98,
1248.862,-75.78,
1248.882,-210.0,
1248.902,-210.0,
1248.922,-210.0,
1248.942,-76.51,
1248.962,-73.41,
1248.982,-210.0,
1249.002,-210.0,
1249.022,-210.0,
1249.042,-74.06,
1249.062,-65.49,
1249.082,-65.61,
1249.102,-68.66,
1249.122,-82.65,
1249.142,-210.0,
1249.162,-66.84,
1249.182,-67.83,
1249.202,-73.06,
1249.222,-210.0,
1249.242,-210.0,
1249.262,-68.22,
1249.282,-66.37,
1249.302,-66.93,
1249.323,-75.41,
1249.343,-210.0,
1249.362,-68.55,
1249.382,-65.23,
1249.402,-65.72,
1249.422,-210.0,
1249.443,-210.0,
1249.463,-70.16,
1249.483,-65.96,
1249.502,-65.61,
1249.522,-70.72,
1249.542,-73.02,
1249.563,-210.0,
1249.583,-67.35,
1249.603,-64.8,
1249.623,-66.07,
1249.642,-67.12,
1249.662,-210.0,
1249.682,-70.79,
1249.703,-64.92,
1249.723,-63.88,
1249.743,-64.83,
1249.763,-66.8,
1249.782,-67.56,
1249.802,-64.96,
1249.823,-64.36,
1249.843,-64.94,
1249.863,-72.34,
1249.883,-73.41,
1249.903,-64.74,
1249.922,-63.37,
1249.943,-64.42,
1249.963,-68.37,
1249.983,-70.33,
1250.003,-66.38,
1250.023,-63.4,
1250.043,-63.78,
1250.063,-66.05,
1250.083,-210.0,
1250.103,-210.0,
1250.123,-210.0,
1250.143,-70.38,
1250.163,-66.33,
1250.183,-70.6,
1250.203,-210.0,
1250.223,-210.0,
1250.243,-69.62,
1250.263,-68.65,
1250.283,-71.65,
1250.303,-210.0,
1250.323,-210.0,
1250.343,-72.19,
1250.363,-68.01,
1250.383,-71.89,
1250.403,-210.0,
1250.423,-210.0,
1250.443,-210.0,
1250.463,-69.95,
1250.483,-71.82,
1250.503,-210.0,
1250.523,-210.0,
1250.543,-210.0,
1250.563,-70.53,
1250.583,-69.26,
1250.603,-67.29,
1250.623,-210.0,
1250.643,-210.0,
1250.663,-74.3,
1250.683,-66.34,
1250.703,-66.0,
1250.723,-73.68,
1250.743,-210.0,
1250.763,-210.0,
1250.783,-67.22,
1250.803,-66.2,
1250.823,-69.21,
1250.843,-210.0,
1250.863,-74.99,
1250.883,-70.9,
1250.903,-65.75,
1250.923,-68.52,
1250.943,-210.0,
1250.963,-210.0,
1250.983,-66.88,
1251.003,-64.79,
1251.023,-65.91,
1251.043,-79.47,
1251.063,-74.75,
1251.083,-67.48,
1251.103,-63.53,
1251.123,-63.1,
1251.143,-62.6,
1251.163,-65.83,
1251.183,-69.78,
1251.203,-65.43,
1251.223,-62.89,
1251.243,-62.6,
1251.263,-65.12,
1251.283,-72.07,
1251.303,-66.04,
1251.323,-62.79,
1251.343,-63.69,
1251.363,-64.77,
1251.383,-83.34,
1251.403,-66.65,
1251.423,-62.96,
1251.443,-62.5,
1251.463,-64.69,
1251.483,-70.95,
1251.503,-65.83,
1251.523,-63.58,
1251.543,-62.78,
1251.563,-63.57,
1251.583,-70.99,
1251.603,-210.0,
1251.623,-66.82,
1251.643,-63.13,
1251.663,-63.0,
1251.683,-66.65,
1251.703,-210.0,
1251.723,-210.0,
1251.743,-65.5,
1251.763,-65.7,
1251.783,-65.4,
1251.803,-210.0,
1251.823,-210.0,
1251.843,-73.26,
1251.863,-64.56,
1251.883,-65.02,
1251.903,-76.1,
1251.923,-210.0,
1251.943,-72.78,
1251.963,-65.41,
1251.983,-67.31,
1252.003,-210.0,
1252.023,-210.0,
1252.043,-74.78,
1252.063,-66.01,
1252.083,-67.89,
1252.103,-77.66,
1252.123,-210.0,
1252.143,-210.0,
1252.163,-210.0,
1252.183,-79.5,
1252.203,-210.0,
1252.223,-210.0,
1252.243,-210.0,
1252.263,-210.0,
1252.283,-71.99,
1252.303,-210.0,
1252.323,-210.0,
1252.343,-210.0,
1252.363,-210.0,
1252.383,-67.46,
1252.403,-74.66,
1252.423,-210.0,
1252.443,-210.0,
1252.463,-210.0,
1252.483,-74.88,
1252.503,-210.0,
1252.523,-210.0,
1252.543,-210.0,
1252.563,-210.0,
1252.583,-210.0,
1252.603,-210.0,
1252.623,-210.0,
1252.643,-210.0,
1252.663,-210.0,
1252.683,-210.0,
1252.703,-210.0,
1252.723,-210.0,
1252.743,-210.0,
1252.763,-210.0,
1252.783,-210.0,
1252.803,-70.78,
1252.823,-72.23,
1252.843,-210.0,
1252.863,-210.0,
1252.883,-210.0,
1252.903,-210.0,
1252.923,-87.07,
1252.943,-210.0,
1252.963,-210.0,
1252.983,-210.0,
1253.003,-73.76,
1253.023,-70.18,
1253.043,-210.0,
1253.063,-210.0,
1253.083,-210.0,
1253.103,-73.7,
1253.123,-68.7,
1253.143,-210.0,
1253.163,-210.0,
1253.183,-210.0,
1253.203,-66.4,
1253.223,-63.54,
1253.243,-65.61,
1253.263,-210.0,
1253.283,-210.0,
1253.303,-66.85,
1253.323,-65.24,
1253.343,-66.91,
1253.363,-210.0,
1253.383,-210.0,
1253.403,-70.49,
1253.423,-65.12,
1253.443,-68.35,
1253.463,-210.0,
1253.483,-210.0,
1253.503,-69.15,
1253.523,-65.09,
1253.543,-69.26,
1253.563,-210.0,
1253.583,-210.0,
1253.603,-69.49,
1253.623,-64.03,
1253.643,-65.2,
1253.663,-72.97,
1253.683,-210.0,
1253.703,-65.35,
1253.723,-65.18,
1253.743,-63.22,
1253.763,-66.89,
1253.783,-210.0,
1253.803,-210.0,
1253.823,-70.55,
1253.843,-63.89,
1253.863,-63.62,
1253.883,-67.21,
1253.903,-210.0,
1253.923,-69.65,
1253.943,-64.2,
1253.963,-63.0,
1253.983,-66.51,
1254.003,-210.0,
1254.023,-70.76,
1254.043,-64.13,
1254.063,-62.59,
1254.083,-65.38,
1254.103,-210.0,
1254.123,-77.75,
1254.143,-63.93,
1254.163,-64.12,
1254.183,-65.14,
1254.203,-210.0,
1254.223,-210.0,
1254.243,-66.88,
1254.263,-64.43,
1254.283,-65.49,
1254.303,-210.0,
1254.323,-210.0,
1254.343,-66.76,
1254.363,-64.82,
1254.383,-65.08,
1254.403,-210.0,
1254.423,-210.0,
1254.443,-67.31,
1254.463,-63.81,
1254.483,-64.5,
1254.503,-80.26,
1254.523,-210.0,
1254.543,-66.7,
1254.563,-63.93,
1254.583,-63.69,
1254.603,-77.04,
1254.623,-210.0,
1254.643,-83.42,
1254.663,-64.98,
1254.683,-65.48,
1254.703,-69.38,
1254.723,-210.0,
1254.743,-74.94,
1254.763,-67.77,
1254.783,-65.27,
1254.803,-67.24,
1254.823,-68.75,
1254.843,-210.0,
1254.863,-210.0,
1254.883,-67.96,
1254.903,-65.47,
1254.923,-68.33,
1254.943,-210.0,
1254.963,-210.0,
1254.983,-65.67,
1255.003,-65.48,
1255.023,-68.23,
1255.043,-210.0,
1255.063,-210.0,
1255.083,-69.95,
1255.103,-65.93,
1255.123,-87.89,
1255.143,-210.0,
1255.163,-210.0,
1255.183,-210.0,
1255.203,-68.95,
1255.223,-73.04,
1255.243,-210.0,
1255.263,-210.0,
1255.283,-210.0,
1255.303,-70.49,
1255.323,-71.49,
1255.343,-210.0,
1255.363,-210.0,
1255.383,-210.0,
1255.403,-67.62,
1255.423,-69.78,
1255.443,-210.0,
1255.463,-210.0,
1255.483,-210.0,
1255.503,-68.8,
1255.523,-70.55,
1255.543,-210.0,
1255.563,-210.0,
1255.583,-210.0,
1255.603,-68.34,
1255.623,-66.62,
1255.643,-210.0,
1255.663,-210.0,
1255.683,-210.0,
1255.703,-65.8,
1255.723,-65.84,
1255.743,-84.86,
1255.763,-210.0,
1255.783,-74.38,
1255.803,-67.78,
1255.823,-65.51,
1255.843,-65.98,
1255.863,-210.0,
1255.883,-210.0,
1255.903,-210.0,
1255.923,-65.99,
1255.943,-68.86,
1255.963,-210.0,
1255.983,-210.0,
1256.003,-210.0,
1256.023,-67.36,
1256.043,-70.19,
1256.063,-210.0,
1256.083,-210.0,
1256.103,-210.0,
1256.123,-68.26,
1256.143,-66.42,
1256.163,-78.57,
1256.183,-210.0,
1256.203,-210.0,
1256.223,-66.18,
1256.243,-65.66,
1256.263,-73.21,
1256.283,-210.0,
1256.303,-76.01,
1256.323,-66.95,
1256.343,-65.31,
1256.363,-71.39,
1256.383,-210.0,
1256.403,-210.0,
1256.423,-67.97,
1256.443,-66.5,
1256.463,-71.54,
1256.483,-210.0,
1256.503,-210.0,
1256.523,-68.93,
1256.543,-66.86,
1256.563,-79.46,
1256.583,-210.0,
1256.603,-210.0,
1256.623,-210.0,
1256.643,-68.98,
1256.663,-210.0,
1256.683,-210.0,
1256.703,-210.0,
1256.723,-210.0,
1256.743,-68.25,
1256.763,-75.43,
1256.783,-210.0,
1256.803,-210.0,
1256.823,-210.0,
1256.843,-210.0,
1256.863,-74.39,
1256.883,-210.0,
1256.903,-210.0,
1256.923,-210.0,
1256.943,-210.0,
1256.963,-67.29,
1256.983,-72.54,
1257.003,-210.0,
1257.023,-210.0,
1257.043,-210.0,
1257.063,-68.06,
1257.083,-69.37,
1257.103,-210.0,
1257.123,-210.0,
1257.143,-72.19,
1257.163,-65.1,
1257.183,-65.2,
1257.203,-210.0,
1257.224,-210.0,
1257.243,-76.88,
1257.263,-65.33,
1257.283,-66.53,
1257.303,-210.0,
1257.323,-210.0,
1257.344,-82.4,
1257.364,-66.24,
1257.383,-66.32,
1257.403,-210.0,
1257.423,-210.0,
1257.443,-210.0,
1257.464,-64.91,
1257.484,-64.51,
1257.504,-69.03,
1257.523,-210.0,
1257.543,-70.82,
1257.563,-63.14,
1257.583,-61.99,
1257.604,-64.06,
1257.624,-71.23,
1257.644,-65.93,
1257.663,-62.4,
1257.683,-62.01,
1257.703,-64.49,
1257.724,-74.04,
1257.744,-67.84,
1257.764,-64.34,
1257.784,-62.19,
1257.803,-64.06,
1257.823,-67.33,
1257.844,-66.97,
1257.864,-65.39,
1257.884,-62.3,
1257.904,-62.21,
1257.924,-66.74,
1257.944,-66.62,
1257.964,-65.35,
1257.984,-62.56,
1258.004,-62.34,
1258.024,-64.06,
1258.044,-64.99,
1258.064,-65.82,
1258.084,-63.2,
1258.104,-63.05,
1258.124,-64.78,
1258.144,-68.73,
1258.164,-69.59,
1258.184,-66.63,
1258.204,-63.97,
1258.224,-65.3,
1258.244,-210.0,
1258.264,-210.0,
1258.284,-67.18,
1258.304,-64.02,
1258.324,-67.73,
1258.344,-210.0,
1258.364,-210.0,
1258.384,-69.85,
1258.404,-64.97,
1258.424,-66.82,
1258.444,-210.0,
1258.464,-210.0,
1258.484,-71.35,
1258.504,-67.69,
1258.524,-69.98,
1258.544,-210.0,
1258.564,-210.0,
1258.584,-210.0,
1258.604,-71.36,
1258.624,-74.93,
1258.644,-210.0,
1258.664,-210.0,
1258.684,-210.0,
1258.704,-72.93,
1258.724,-68.05,
1258.744,-70.75,
1258.764,-210.0,
1258.784,-210.0,
1258.804,-70.56,
1258.824,-67.8,
1258.844,-74.87,
1258.864,-210.0,
1258.884,-210.0,
1258.904,-71.15,
1258.924,-66.99,
1258.944,-69.63,
1258.964,-210.0,
1258.984,-210.0,
1259.004,-73.42,
1259.024,-66.7,
1259.044,-68.88,
1259.064,-210.0,
1259.084,-210.0,
1259.104,-210.0,
1259.124,-67.34,
1259.144,-68.64,
1259.164,-210.0,
1259.184,-210.0,
1259.204,-210.0,
1259.224,-66.54,
1259.244,-65.82,
1259.264,-86.15,
1259.284,-210.0,
1259.304,-210.0,
1259.324,-66.07,
1259.344,-63.84,
1259.364,-69.93,
1259.384,-210.0,
1259.404,-210.0,
1259.424,-65.98,
1259.444,-63.91,
1259.464,-69.72,
1259.484,-210.0,
1259.504,-210.0,
1259.524,-66.34,
1259.544,-65.37,
1259.564,-67.72,
1259.584,-210.0,
1259.604,-210.0,
1259.624,-70.17,
1259.644,-66.17,
1259.664,-67.11,
1259.684,-210.0,
1259.704,-210.0,
1259.724,-75.0,
1259.744,-66.17,
1259.764,-66.52,
1259.784,-210.0,
1259.804,-210.0,
1259.824,-210.0,
1259.844,-65.9,
1259.864,-66.43,
1259.884,-210.0,
1259.904,-210.0,
1259.924,-210.0,
1259.944,-69.0,
1259.964,-66.32,
1259.984,-210.0,
1260.004,-210.0,
1260.024,-210.0,
1260.044,-72.0,
1260.064,-67.73,
1260.084,-96.27,
1260.104,-210.0,
1260.124,-210.0,
1260.144,-70.59,
1260.164,-65.99,
1260.184,-210.0,
1260.204,-210.0,
1260.224,-210.0,
1260.244,-69.7,
1260.264,-66.49,
1260.284,-68.02,
1260.304,-89.8,
1260.324,-210.0,
1260.344,-74.93,
1260.364,-64.77,
1260.384,-68.98,
1260.404,-210.0,
1260.424,-210.0,
1260.444,-68.96,
1260.464,-67.58,
1260.484,-67.97,
1260.504,-72.66,
1260.524,-72.17,
1260.544,-66.59,
1260.564,-63.63,
1260.584,-66.16,
1260.604,-69.61,
1260.624,-68.07,
1260.644,-66.06,
1260.664,-64.16,
1260.684,-64.2,
1260.704,-72.4,
1260.724,-70.88,
1260.744,-68.44,
1260.764,-66.01,
1260.784,-67.56,
1260.804,-76.13,
1260.824,-74.64,
1260.844,-76.92,
1260.864,-67.84,
1260.884,-67.59,
1260.904,-210.0,
1260.924,-70.32,
1260.944,-210.0,
1260.964,-68.23,
1260.984,-66.44,
1261.004,-71.65,
1261.024,-210.0,
1261.044,-73.53,
1261.064,-73.98,
1261.084,-210.0,
1261.104,-210.0,
1261.124,-67.67,
1261.144,-71.15,
1261.164,-67.62,
1261.184,-70.48,
1261.204,-74.75,
1261.224,-77.15,
1261.244,-77.19,
1261.264,-73.23,
1261.284,-210.0,
1261.304,-210.0,
1261.324,-77.18,
1261.344,-210.0,
1261.364,-210.0,
1261.384,-71.39,
1261.404,-85.71,
1261.424,-210.0,
1261.444,-79.35,
1261.464,-70.83,
1261.484,-80.86,
1261.504,-83.58,
1261.524,-82.18,
1261.544,-210.0,
1261.564,-72.37,
1261.584,-68.05,
1261.604,-72.03,
1261.624,-84.69,
1261.644,-70.89,
1261.664,-70.53,
1261.684,-68.68,
1261.704,-210.0,
1261.724,-210.0,
1261.744,-210.0,
1261.764,-210.0,
1261.784,-68.14,
1261.804,-81.08,
1261.824,-84.49,
1261.844,-70.29,
1261.864,-69.72,
1261.884,-65.57,
1261.904,-70.84,
1261.924,-69.76,
1261.944,-69.41,
1261.964,-67.74,
1261.984,-66.22,
1262.004,-68.99,
1262.024,-210.0,
1262.044,-69.15,
1262.064,-63.76,
1262.084,-63.26,
1262.104,-67.06,
1262.124,-210.0,
1262.144,-210.0,
1262.164,-66.29,
1262.184,-64.58,
1262.204,-67.53,
1262.224,-76.07,
1262.244,-210.0,
1262.264,-64.75,
1262.284,-65.58,
1262.304,-68.92,
1262.324,-70.46,
1262.344,-68.71,
1262.364,-65.45,
1262.384,-64.08,
1262.404,-65.06,
1262.424,-71.91,
1262.444,-79.92,
1262.464,-65.23,
1262.484,-63.13,
1262.504,-64.47,
1262.524,-71.96,
1262.544,-76.37,
1262.564,-70.36,
1262.584,-65.85,
1262.604,-67.56,
1262.624,-210.0,
1262.644,-210.0,
1262.664,-210.0,
1262.684,-66.21,
1262.704,-65.19,
1262.724,-210.0,
1262.744,-75.12,
1262.764,-69.33,
1262.784,-64.09,
1262.804,-63.46,
1262.824,-68.13,
1262.844,-69.79,
1262.864,-69.23,
1262.884,-65.26,
1262.904,-64.17,
1262.924,-67.46,
1262.944,-83.97,
1262.964,-72.16,
1262.984,-71.1,
1263.004,-72.01,
1263.024,-71.29,
1263.044,-73.27,
1263.064,-73.75,
1263.084,-67.88,
1263.104,-68.32,
1263.124,-70.96,
1263.144,-68.33,
1263.164,-70.95,
1263.184,-69.05,
1263.204,-72.64,
1263.224,-70.91,
1263.244,-210.0,
1263.264,-69.95,
1263.284,-65.51,
1263.304,-66.28,
1263.324,-73.35,
1263.344,-78.39,
1263.364,-72.59,
1263.384,-210.0,
1263.404,-72.35,
1263.424,-210.0,
1263.444,-210.0,
1263.464,-210.0,
1263.484,-210.0,
1263.504,-210.0,
1263.524,-210.0,
1263.544,-210.0,
1263.564,-210.0,
1263.584,-210.0,
1263.604,-72.55,
1263.624,-210.0,
1263.644,-210.0,
1263.664,-210.0,
1263.684,-210.0,
1263.704,-69.23,
1263.724,-210.0,
1263.744,-210.0,
1263.764,-210.0,
1263.784,-210.0,
1263.804,-76.38,
1263.824,-210.0,
1263.844,-210.0,
1263.864,-210.0,
1263.884,-210.0,
1263.904,-210.0,
1263.924,-210.0,
1263.944,-210.0,
1263.964,-70.3,
1263.984,-67.35,
1264.004,-68.46,
1264.024,-73.5,
1264.044,-68.27,
1264.064,-72.53,
1264.084,-68.47,
1264.104,-66.97,
1264.124,-70.74,
1264.144,-67.73,
1264.164,-66.89,
1264.184,-65.88,
1264.204,-66.5,
1264.224,-67.36,
1264.244,-68.3,
1264.264,-67.27,
1264.284,-69.36,
1264.304,-72.18,
1264.324,-75.99,
1264.344,-69.44,
1264.364,-68.75,
1264.384,-73.48,
1264.404,-66.76,
1264.424,-67.49,
1264.444,-68.54,
1264.464,-67.88,
1264.484,-66.49,
1264.504,-64.27,
1264.524,-66.31,
1264.544,-66.2,
1264.564,-65.91,
1264.584,-66.43,
1264.604,-65.64,
1264.624,-67.63,
1264.644,-67.69,
1264.664,-66.15,
1264.684,-66.53,
1264.704,-66.25,
1264.724,-67.08,
1264.744,-68.37,
1264.764,-69.05,
1264.784,-68.3,
1264.804,-65.37,
1264.824,-66.58,
1264.844,-65.73,
1264.864,-65.5,
1264.884,-66.95,
1264.904,-62.96,
1264.924,-64.22,
1264.944,-64.7,
1264.964,-64.26,
1264.984,-63.93,
1265.004,-64.44,
1265.024,-63.9,
1265.044,-64.55,
1265.064,-65.22,
1265.084,-66.46,
1265.104,-66.53,
1265.124,-66.19,
1265.144,-66.34,
1265.164,-67.85,
1265.184,-67.85,
1265.204,-69.6,
1265.224,-67.81,
1265.245,-69.07,
1265.264,-67.42,
1265.284,-64.92,
1265.304,-64.0,
1265.324,-66.25,
1265.344,-65.49,
1265.365,-64.97,
1265.385,-65.51,
1265.404,-65.96,
1265.424,-65.12,
1265.444,-64.86,
1265.464,-66.25,
1265.484,-66.6,
1265.505,-64.76,
1265.525,-67.28,
1265.544,-65.92,
1265.564,-66.08,
1265.584,-67.2,
1265.604,-66.42,
1265.625,-68.34,
1265.645,-65.62,
1265.665,-66.1,
1265.685,-67.13,
1265.704,-66.3,
1265.724,-66.4,
1265.745,-65.37,
1265.765,-64.61,
1265.785,-65.22,
1265.805,-65.47,
1265.825,-65.34,
1265.844,-67.21,
1265.865,-65.05,
1265.885,-73.12,
1265.905,-75.43,
1265.925,-210.0,
1265.945,-77.03,
1265.965,-210.0,
1265.984,-210.0,
1266.005,-210.0,
1266.025,-210.0,
1266.045,-210.0,
1266.065,-210.0,
1266.085,-210.0,
1266.105,-210.0,
1266.125,-210.0,
1266.145,-210.0,
1266.165,-210.0,
1266.185,-210.0,
1266.205,-210.0,
1266.225,-86.28,
1266.245,-210.0,
1266.265,-210.0,
1266.285,-210.0,
1266.305,-210.0,
1266.325,-210.0,
1266.345,-210.0,
1266.365,-210.0,
1266.385,-72.43,
1266.405,-70.5,
1266.425,-210.0,
1266.445,-79.46,
1266.465,-70.24,
1266.485,-210.0,
1266.505,-71.93,
1266.525,-210.0,
1266.545,-210.0,
1266.565,-210.0,
1266.585,-210.0,
1266.605,-71.79,
1266.625,-75.0,
1266.645,-210.0,
1266.665,-210.0,
1266.685,-210.0,
1266.705,-210.0,
1266.725,-66.03,
1266.745,-65.53,
1266.765,-71.36,
1266.785,-210.0,
1266.805,-210.0,
1266.825,-68.93,
1266.845,-77.07,
1266.865,-72.04,
1266.885,-71.3,
1266.905,-72.1,
1266.925,-80.15,
1266.945,-69.78,
1266.965,-70.22,
1266.985,-68.25,
1267.005,-68.33,
1267.025,-66.47,
1267.045,-66.11,
1267.065,-67.04,
1267.085,-65.81,
1267.105,-66.53,
1267.125,-65.85,
1267.145,-66.7,
1267.165,-67.71,
1267.185,-69.96,
1267.205,-64.97,
1267.225,-63.89,
1267.245,-65.25,
1267.265,-210.0,
1267.285,-210.0,
1267.305,-66.95,
1267.325,-65.64,
1267.345,-64.77,
1267.365,-210.0,
1267.385,-210.0,
1267.405,-74.28,
1267.425,-65.83,
1267.445,-69.36,
1267.465,-71.83,
1267.485,-210.0,
1267.505,-70.32,
1267.525,-66.24,
1267.545,-66.65,
1267.565,-73.38,
1267.585,-210.0,
1267.605,-74.63,
1267.625,-65.58,
1267.645,-66.42,
1267.665,-71.42,
1267.685,-68.36,
1267.705,-66.15,
1267.725,-66.27,
1267.745,-74.88,
1267.765,-210.0,
1267.785,-69.82,
1267.805,-65.23,
1267.825,-63.92,
1267.845,-65.86,
1267.865,-78.58,
1267.885,-70.18,
1267.905,-64.04,
1267.925,-64.95,
1267.945,-65.33,
1267.965,-70.55,
1267.985,-65.96,
1268.005,-63.16,
1268.025,-63.49,
1268.045,-64.58,
1268.065,-68.67,
1268.085,-66.44,
1268.105,-63.24,
1268.125,-62.82,
1268.145,-66.09,
1268.165,-64.94,
1268.185,-64.0,
1268.205,-63.44,
1268.225,-65.18,
1268.245,-68.68,
1268.265,-65.79,
1268.285,-63.42,
1268.305,-62.43,
1268.325,-64.21,
1268.345,-67.54,
1268.365,-65.73,
1268.385,-62.76,
1268.405,-62.18,
1268.425,-62.77,
1268.445,-65.66,
1268.465,-63.88,
1268.485,-62.68,
1268.505,-61.94,
1268.525,-62.22,
1268.545,-64.1,
1268.565,-65.19,
1268.585,-63.0,
1268.605,-62.75,
1268.625,-62.25,
1268.645,-63.49,
1268.665,-63.94,
1268.685,-62.42,
1268.705,-62.27,
1268.725,-64.02,
1268.745,-63.8,
1268.765,-62.71,
1268.785,-61.65,
1268.805,-61.97,
1268.825,-63.22,
1268.845,-64.44,
1268.865,-63.16,
1268.885,-62.43,
1268.905,-61.84,
1268.925,-64.09,
1268.945,-63.95,
1268.965,-64.33,
1268.985,-63.58,
1269.005,-63.65,
1269.025,-65.38,
1269.045,-67.24,
1269.065,-67.0,
1269.085,-64.52,
1269.105,-64.81,
1269.125,-64.83,
1269.145,-65.32,
1269.165,-63.22,
1269.185,-63.46,
1269.205,-65.26,
1269.225,-63.74,
1269.245,-63.89,
1269.265,-63.48,
1269.285,-63.27,
1269.305,-64.8,
1269.325,-64.42,
1269.345,-64.17,
1269.365,-64.53,
1269.385,-64.54,
1269.405,-66.12,
1269.425,-66.43,
1269.445,-65.78,
1269.465,-66.89,
1269.485,-65.13,
1269.505,-65.9,
1269.525,-70.9,
1269.545,-71.31,
1269.565,-73.58,
1269.585,-66.09,
1269.605,-66.12,
1269.625,-68.26,
1269.645,-69.24,
1269.665,-65.13,
1269.685,-66.91,
1269.705,-69.95,
1269.725,-210.0,
1269.745,-70.71,
1269.765,-69.8,
1269.785,-69.23,
1269.805,-76.89,
1269.825,-210.0,
1269.845,-210.0,
1269.865,-70.13,
1269.885,-69.55,
1269.905,-68.72,
1269.925,-210.0,
1269.945,-210.0,
1269.965,-70.84,
1269.985,-66.73,
1270.005,-67.43,
1270.025,-75.66,
1270.045,-68.39,
1270.065,-65.72,
1270.085,-64.26,
1270.105,-66.05,
1270.125,-65.45,
1270.145,-66.1,
1270.165,-65.41,
1270.185,-64.64,
1270.205,-70.54,
1270.225,-210.0,
1270.245,-68.42,
1270.265,-64.94,
1270.285,-65.81,
1270.305,-70.85,
1270.325,-210.0,
1270.345,-68.16,
1270.365,-64.96,
1270.385,-64.72,
1270.405,-67.27,
1270.425,-210.0,
1270.445,-65.71,
1270.465,-64.19,
1270.485,-64.66,
1270.505,-66.04,
1270.525,-66.64,
1270.545,-65.41,
1270.565,-62.95,
1270.585,-63.06,
1270.605,-64.65,
1270.625,-63.69,
1270.645,-62.76,
1270.665,-63.17,
1270.685,-64.5,
1270.705,-65.98,
1270.725,-65.36,
1270.745,-62.68,
1270.765,-62.3,
1270.785,-63.82,
1270.805,-65.52,
1270.825,-64.77,
1270.845,-62.55,
1270.865,-61.88,
1270.885,-63.08,
1270.905,-64.64,
1270.925,-64.21,
1270.945,-61.93,
1270.965,-61.58,
1270.985,-63.08,
1271.005,-63.88,
1271.025,-63.93,
1271.045,-62.33,
1271.065,-61.81,
1271.085,-61.84,
1271.105,-63.46,
1271.125,-62.43,
1271.145,-61.52,
1271.165,-62.28,
1271.185,-63.83,
1271.205,-63.0,
1271.225,-61.76,
1271.245,-61.82,
1271.265,-61.68,
1271.285,-63.2,
1271.305,-63.37,
1271.325,-62.42,
1271.345,-61.51,
1271.365,-62.2,
1271.385,-62.78,
1271.405,-63.0,
1271.425,-62.78,
1271.445,-62.28,
1271.465,-62.3,
1271.485,-62.32,
1271.505,-64.31,
1271.525,-63.08,
1271.545,-62.35,
1271.565,-61.92,
1271.585,-64.72,
1271.605,-64.89,
1271.625,-64.02,
1271.645,-63.74,
1271.665,-65.6,
1271.685,-65.7,
1271.705,-64.29,
1271.725,-63.49,
1271.745,-63.13,
1271.765,-64.1,
1271.785,-66.81,
1271.805,-65.65,
1271.825,-63.64,
1271.845,-64.13,
1271.865,-64.49,
1271.885,-68.09,
1271.905,-68.12,
1271.925,-62.86,
1271.945,-64.02,
1271.965,-66.68,
1271.985,-210.0,
1272.005,-68.04,
1272.025,-63.03,
1272.045,-64.57,
1272.065,-79.39,
1272.085,-210.0,
1272.105,-69.1,
1272.125,-68.26,
1272.145,-71.02,
1272.165,-210.0,
1272.185,-210.0,
1272.205,-76.5,
1272.225,-66.95,
1272.245,-210.0,
1272.265,-210.0,
1272.285,-210.0,
1272.305,-68.86,
1272.325,-70.18,
1272.345,-72.96,
1272.365,-210.0,
1272.385,-210.0,
1272.405,-70.98,
1272.425,-67.77,
1272.445,-68.28,
1272.465,-210.0,
1272.485,-210.0,
1272.505,-210.0,
1272.525,-68.56,
1272.545,-210.0,
1272.565,-210.0,
1272.585,-67.81,
1272.605,-65.96,
1272.625,-69.7,
1272.645,-210.0,
1272.665,-210.0,
1272.685,-69.95,
1272.705,-65.52,
1272.725,-70.14,
1272.745,-210.0,
1272.765,-210.0,
1272.785,-70.19,
1272.805,-67.53,
1272.825,-68.33,
1272.845,-210.0,
1272.865,-210.0,
1272.885,-68.05,
1272.905,-210.0,
1272.925,-210.0,
1272.945,-210.0,
1272.965,-210.0,
1272.985,-67.19,
1273.005,-82.67,
1273.025,-210.0,
1273.045,-210.0,
1273.065,-210.0,
1273.085,-66.07,
1273.105,-69.83,
1273.125,-210.0,
1273.145,-210.0,
1273.165,-210.0,
1273.185,-70.51,
1273.205,-76.61,
1273.225,-210.0,
1273.245,-73.45,
1273.266,-65.63,
1273.286,-68.71,
1273.305,-210.0,
1273.325,-210.0,
1273.345,-210.0,
1273.365,-66.86,
1273.385,-67.28,
1273.406,-210.0,
1273.426,-210.0,
1273.445,-84.57,
1273.465,-65.37,
1273.485,-65.93,
1273.505,-69.44,
1273.526,-210.0,
1273.546,-79.42,
1273.566,-210.0,
1273.585,-210.0,
1273.605,-210.0,
1273.625,-210.0,
1273.646,-68.83,
1273.666,-68.58,
1273.686,-210.0,
1273.706,-210.0,
1273.725,-210.0,
1273.745,-70.93,
1273.766,-69.17,
1273.786,-210.0,
1273.806,-210.0,
1273.826,-210.0,
1273.846,-66.39,
1273.865,-69.0,
1273.885,-78.89,
1273.906,-68.09,
1273.926,-62.68,
1273.946,-62.8,
1273.966,-65.29,
1273.986,-210.0,
1274.005,-70.66,
1274.026,-64.27,
1274.046,-62.81,
1274.066,-67.26,
1274.086,-210.0,
1274.106,-210.0,
1274.126,-66.03,
1274.146,-63.9,
1274.166,-66.95,
1274.186,-210.0,
1274.206,-73.92,
1274.226,-65.75,
1274.246,-73.78,
1274.266,-210.0,
1274.286,-210.0,
1274.306,-65.04,
1274.326,-64.11,
1274.346,-66.88,
1274.366,-210.0,
1274.386,-210.0,
1274.406,-65.79,
1274.426,-64.28,
1274.446,-70.77,
1274.466,-210.0,
1274.486,-210.0,
1274.506,-68.57,
1274.526,-66.14,
1274.546,-71.18,
1274.566,-70.13,
1274.586,-63.95,
1274.606,-62.05,
1274.626,-63.67,
1274.646,-72.83,
1274.666,-72.94,
1274.686,-63.93,
1274.706,-62.14,
1274.726,-62.81,
1274.746,-68.3,
1274.766,-71.66,
1274.786,-64.07,
1274.806,-62.35,
1274.826,-63.98,
1274.846,-67.91,
1274.866,-74.38,
1274.886,-64.19,
1274.906,-65.87,
1274.926,-210.0,
1274.946,-210.0,
1274.966,-68.3,
1274.986,-64.95,
1275.006,-66.24,
1275.026,-210.0,
1275.046,-210.0,
1275.066,-66.8,
1275.086,-64.2,
1275.106,-64.19,
1275.126,-67.29,
1275.146,-77.58,
1275.166,-66.38,
1275.186,-62.25,
1275.206,-63.65,
1275.226,-66.32,
1275.246,-63.27,
1275.266,-61.66,
1275.286,-61.98,
1275.306,-66.08,
1275.326,-73.82,
1275.346,-64.32,
1275.366,-62.11,
1275.386,-62.77,
1275.406,-66.38,
1275.426,-210.0,
1275.446,-66.39,
1275.466,-62.62,
1275.486,-63.28,
1275.506,-65.89,
1275.526,-68.94,
1275.546,-63.69,
1275.566,-63.15,
1275.586,-67.54,
1275.606,-210.0,
1275.626,-67.67,
1275.646,-63.86,
1275.666,-63.46,
1275.686,-67.32,
1275.706,-210.0,
1275.726,-72.44,
1275.746,-63.66,
1275.766,-63.61,
1275.786,-66.19,
1275.806,-210.0,
1275.826,-71.59,
1275.846,-62.95,
1275.866,-63.6,
1275.886,-74.19,
1275.906,-66.48,
1275.926,-62.76,
1275.946,-63.07,
1275.966,-65.41,
1275.986,-210.0,
1276.006,-66.84,
1276.026,-62.65,
1276.046,-62.42,
1276.066,-65.32,
1276.086,-72.25,
1276.106,-74.4,
1276.126,-64.82,
1276.146,-63.22,
1276.166,-65.61,
1276.186,-210.0,
1276.206,-64.73,
1276.226,-64.55,
1276.246,-72.28,
1276.266,-210.0,
1276.286,-210.0,
1276.306,-66.32,
1276.326,-64.59,
1276.346,-68.86,
1276.366,-210.0,
1276.386,-210.0,
1276.406,-65.03,
1276.426,-63.08,
1276.446,-65.04,
1276.466,-72.86,
1276.486,-72.15,
1276.506,-63.91,
1276.526,-63.5,
1276.546,-210.0,
1276.566,-210.0,
1276.586,-64.83,
1276.606,-63.49,
1276.626,-63.98,
1276.646,-73.29,
1276.666,-210.0,
1276.686,-65.49,
1276.706,-63.89,
1276.726,-64.94,
1276.746,-210.0,
1276.766,-210.0,
1276.786,-67.26,
1276.806,-66.27,
1276.826,-83.21,
1276.846,-210.0,
1276.866,-73.02,
1276.886,-67.32,
1276.906,-72.99,
1276.926,-210.0,
1276.946,-210.0,
1276.966,-210.0,
1276.986,-67.49,
1277.006,-68.87,
1277.026,-210.0,
1277.046,-210.0,
1277.066,-69.94,
1277.086,-67.15,
1277.106,-210.0,
1277.126,-210.0,
1277.146,-210.0,
1277.166,-67.11,
1277.186,-72.77,
1277.206,-210.0,
1277.226,-210.0,
1277.246,-210.0,
1277.266,-66.36,
1277.286,-210.0,
1277.306,-210.0,
1277.326,-210.0,
1277.346,-72.83,
1277.366,-64.88,
1277.386,-76.13,
1277.406,-210.0,
1277.426,-210.0,
1277.446,-84.97,
1277.466,-69.06,
1277.486,-210.0,
1277.506,-210.0,
1277.526,-210.0,
1277.546,-72.22,
1277.566,-210.0,
1277.586,-210.0,
1277.606,-210.0,
1277.626,-210.0,
1277.646,-210.0,
1277.666,-210.0,
1277.686,-210.0,
1277.706,-210.0,
1277.726,-210.0,
1277.746,-70.62,
1277.766,-210.0,
1277.786,-210.0,
1277.806,-68.99,
1277.826,-65.2,
1277.846,-67.65,
1277.866,-210.0,
1277.886,-210.0,
1277.906,-67.5,
1277.926,-64.1,
1277.946,-65.11,
1277.966,-71.02,
1277.986,-210.0,
1278.006,-66.58,
1278.026,-74.67,
1278.046,-210.0,
1278.066,-210.0,
1278.086,-71.88,
1278.106,-63.86,
1278.126,-66.42,
1278.146,-210.0,
1278.166,-210.0,
1278.186,-68.4,
1278.206,-64.23,
1278.226,-64.06,
1278.246,-210.0,
1278.266,-66.53,
1278.286,-63.4,
1278.306,-63.97,
1278.326,-70.84,
1278.346,-77.79,
1278.366,-67.09,
1278.386,-63.51,
1278.406,-65.48,
1278.426,-74.49,
1278.446,-210.0,
1278.466,-68.94,
1278.486,-63.26,
1278.506,-66.44,
1278.526,-68.11,
1278.546,-64.0,
1278.566,-62.1,
1278.586,-62.73,
1278.606,-65.41,
1278.626,-66.57,
1278.646,-64.1,
1278.666,-61.29,
1278.686,-62.81,
1278.706,-67.19,
1278.726,-67.6,
1278.746,-63.97,
1278.766,-65.12,
1278.786,-76.17,
1278.806,-210.0,
1278.826,-72.69,
1278.846,-63.5,
1278.866,-65.17,
1278.886,-210.0,
1278.906,-210.0,
1278.926,-68.67,
1278.946,-65.56,
1278.966,-65.23,
1278.986,-210.0,
1279.006,-70.44,
1279.026,-63.62,
1279.046,-64.16,
1279.066,-70.57,
1279.086,-210.0,
1279.106,-69.5,
1279.126,-64.2,
1279.146,-64.47,
1279.166,-71.63,
1279.186,-210.0,
1279.206,-210.0,
1279.226,-65.42,
1279.246,-70.62,
1279.266,-210.0,
1279.286,-210.0,
1279.306,-66.56,
1279.326,-66.24,
1279.346,-76.08,
1279.366,-210.0,
1279.386,-79.73,
1279.406,-65.46,
1279.426,-64.27,
1279.446,-67.65,
1279.466,-210.0,
1279.486,-70.16,
1279.506,-69.18,
1279.526,-210.0,
1279.546,-210.0,
1279.566,-210.0,
1279.586,-210.0,
1279.606,-70.81,
1279.626,-210.0,
1279.646,-210.0,
1279.666,-210.0,
1279.686,-210.0,
1279.706,-75.26,
1279.726,-210.0,
1279.746,-210.0,
1279.766,-75.03,
1279.786,-71.27,
1279.806,-210.0,
1279.826,-210.0,
1279.846,-210.0,
1279.866,-73.87,
1279.886,-68.08,
1279.906,-210.0,
1279.926,-210.0,
1279.946,-210.0,
1279.966,-210.0,
1279.986,-68.5,
1280.006,-210.0,
1280.026,-210.0,
1280.046,-71.0,
1280.066,-66.88,
1280.086,-210.0,
1280.106,-210.0,
1280.126,-210.0,
1280.146,-210.0,
1280.166,-71.18,
1280.186,-210.0,
1280.206,-210.0,
1280.226,-210.0,
1280.246,-68.8,
1280.266,-210.0,
1280.286,-210.0,
1280.306,-210.0,
1280.326,-73.28,
1280.346,-68.9,
1280.366,-210.0,
1280.386,-210.0,
1280.406,-210.0,
1280.426,-210.0,
1280.446,-71.17,
1280.466,-210.0,
1280.486,-210.0,
1280.506,-72.88,
1280.526,-67.89,
1280.546,-210.0,
1280.566,-210.0,
1280.586,-210.0,
1280.606,-210.0,
1280.626,-69.4,
1280.646,-210.0,
1280.666,-210.0,
1280.686,-210.0,
1280.706,-71.42,
1280.726,-64.31,
1280.746,-210.0,
1280.766,-210.0,
1280.786,-66.42,
1280.806,-63.75,
1280.826,-65.66,
1280.846,-210.0,
1280.866,-210.0,
1280.886,-66.89,
1280.906,-64.78,
1280.926,-66.12,
1280.946,-76.82,
1280.966,-210.0,
1280.986,-65.02,
1281.006,-70.54,
1281.026,-210.0,
1281.046,-210.0,
1281.066,-66.74,
1281.086,-64.82,
1281.106,-67.5,
1281.126,-210.0,
1281.146,-210.0,
1281.167,-66.17,
1281.186,-63.99,
1281.206,-67.92,
1281.226,-210.0,
1281.246,-67.54,
1281.266,-67.16,
1281.286,-210.0,
1281.307,-210.0,
1281.326,-210.0,
1281.346,-210.0,
1281.366,-72.23,
1281.386,-210.0,
1281.406,-210.0,
1281.427,-210.0,
1281.447,-210.0,
1281.466,-67.27,
1281.486,-210.0,
1281.506,-210.0,
1281.526,-67.89,
1281.547,-65.14,
1281.567,-66.8,
1281.587,-210.0,
1281.606,-210.0,
1281.626,-67.04,
1281.646,-63.67,
1281.667,-67.37,
1281.687,-210.0,
1281.707,-71.91,
1281.727,-67.34,
1281.746,-74.3,
1281.766,-210.0,
1281.786,-210.0,
1281.807,-210.0,
1281.827,-71.03,
1281.847,-75.95,
1281.867,-210.0,
1281.887,-210.0,
1281.906,-210.0,
1281.927,-210.0,
1281.947,-210.0,
1281.967,-210.0,
1281.987,-210.0,
1282.007,-210.0,
1282.027,-210.0,
1282.047,-210.0,
1282.067,-210.0,
1282.087,-210.0,
1282.107,-210.0,
1282.127,-210.0,
1282.147,-210.0,
1282.167,-210.0,
1282.187,-210.0,
1282.207,-210.0,
1282.227,-210.0,
1282.247,-210.0,
1282.267,-210.0,
1282.287,-210.0,
1282.307,-210.0,
1282.327,-210.0,
1282.347,-210.0,
1282.367,-210.0,
1282.387,-210.0,
1282.407,-210.0,
1282.427,-210.0,
1282.447,-210.0,
1282.467,-210.0,
1282.487,-210.0,
1282.507,-210.0,
1282.527,-210.0,
1282.547,-210.0,
1282.567,-210.0,
1282.587,-210.0,
1282.607,-210.0,
1282.627,-210.0,
1282.647,-210.0,
1282.667,-210.0,
1282.687,-210.0,
1282.707,-210.0,
1282.727,-210.0,
1282.747,-210.0,
1282.767,-210.0,
1282.787,-210.0,
1282.807,-210.0,
1282.827,-210.0,
1282.847,-210.0,
1282.867,-210.0,
1282.887,-210.0,
1282.907,-75.87,
1282.927,-69.17,
1282.947,-74.56,
1282.967,-210.0,
1282.987,-73.79,
1283.007,-73.09,
1283.027,-67.62,
1283.047,-74.65,
1283.067,-210.0,
1283.087,-73.73,
1283.107,-68.12,
1283.127,-75.75,
1283.147,-210.0,
1283.167,-210.0,
1283.187,-70.73,
1283.207,-66.64,
1283.227,-68.66,
1283.247,-67.52,
1283.267,-71.78,
1283.287,-66.27,
1283.307,-68.35,
1283.327,-71.37,
1283.347,-68.23,
1283.367,-68.72,
1283.387,-65.16,
1283.407,-67.14,
1283.427,-68.67,
1283.447,-68.0,
1283.467,-69.83,
1283.487,-76.37,
1283.507,-210.0,
1283.527,-69.03,
1283.547,-68.68,
1283.567,-72.11,
1283.587,-210.0,
1283.607,-70.23,
1283.627,-69.79,
1283.647,-67.59,
1283.667,-64.47,
1283.687,-67.05,
1283.707,-66.93,
1283.727,-65.97,
1283.747,-64.26,
1283.767,-67.16,
1283.787,-67.9,
1283.807,-68.85,
1283.827,-67.74,
1283.847,-63.55,
1283.867,-70.56,
1283.887,-69.02,
1283.907,-69.09,
1283.927,-68.09,
1283.947,-66.76,
1283.967,-82.13,
1283.987,-73.04,
1284.007,-70.69,
1284.027,-70.35,
1284.047,-69.04,
1284.067,-210.0,
1284.087,-68.48,
1284.107,-65.96,
1284.127,-66.79,
1284.147,-67.76,
1284.167,-70.12,
1284.187,-68.7,
1284.207,-65.49,
1284.227,-67.7,
1284.247,-72.71,
1284.267,-69.47,
1284.287,-67.24,
1284.307,-68.4,
1284.327,-72.94,
1284.347,-72.6,
1284.367,-73.08,
1284.387,-70.27,
1284.407,-210.0,
1284.427,-210.0,
1284.447,-73.73,
1284.467,-66.37,
1284.487,-70.76,
1284.507,-72.44,
1284.527,-71.63,
1284.547,-210.0,
1284.567,-66.57,
1284.587,-67.0,
1284.607,-71.23,
1284.627,-73.19,
1284.647,-70.9,
1284.667,-67.76,
1284.687,-77.65,
1284.707,-72.7,
1284.727,-210.0,
1284.747,-71.26,
1284.767,-210.0,
1284.787,-210.0,
1284.807,-210.0,
1284.827,-210.0,
1284.847,-66.24,
1284.867,-210.0,
1284.887,-210.0,
1284.907,-68.14,
1284.927,-67.68,
1284.947,-67.33,
1284.967,-68.56,
1284.987,-67.44,
1285.007,-69.19,
1285.027,-67.79,
1285.047,-65.99,
1285.067,-72.71,
1285.087,-69.16,
1285.107,-68.45,
1285.127,-71.1,
1285.147,-72.71,
1285.167,-69.24,
1285.187,-70.63,
1285.207,-69.77,
1285.227,-71.12,
1285.247,-210.0,
1285.267,-210.0,
1285.287,-68.92,
1285.307,-73.81,
1285.327,-70.47,
1285.347,-79.64,
1285.367,-71.8,
1285.387,-66.06,
1285.407,-67.16,
1285.427,-210.0,
1285.447,-210.0,
1285.467,-67.19,
1285.487,-69.98,
1285.507,-70.89,
1285.527,-69.75,
1285.547,-75.32,
1285.567,-73.11,
1285.587,-72.08,
1285.607,-78.44,
1285.627,-210.0,
1285.647,-210.0,
1285.667,-67.31,
1285.687,-210.0,
1285.707,-72.5,
1285.727,-77.09,
1285.747,-71.12,
1285.767,-73.52,
1285.787,-72.29,
1285.807,-67.91,
1285.827,-72.76,
1285.847,-67.07,
1285.867,-210.0,
1285.887,-80.4,
1285.907,-210.0,
1285.927,-77.06,
1285.947,-210.0,
1285.967,-210.0,
1285.987,-80.29,
1286.007,-210.0,
1286.027,-210.0,
1286.047,-210.0,
1286.067,-77.41,
1286.087,-72.29,
1286.107,-71.45,
1286.127,-71.01,
1286.147,-210.0,
1286.167,-69.99,
1286.187,-70.52,
1286.207,-69.37,
1286.227,-68.21,
1286.247,-68.64,
1286.267,-69.2,
1286.287,-68.52,
1286.307,-70.3,
1286.327,-68.57,
1286.347,-67.92,
1286.367,-74.12,
1286.387,-71.02,
1286.407,-71.32,
1286.427,-70.11,
1286.447,-210.0,
1286.467,-210.0,
1286.487,-210.0,
1286.507,-210.0,
1286.527,-80.59,
1286.547,-210.0,
1286.567,-78.1,
1286.587,-210.0,
1286.607,-210.0,
1286.627,-68.59,
1286.647,-210.0,
1286.667,-210.0,
1286.687,-210.0,
1286.707,-210.0,
1286.727,-210.0,
1286.747,-210.0,
1286.767,-210.0,
1286.787,-210.0,
1286.807,-210.0,
1286.827,-210.0,
1286.847,-210.0,
1286.867,-210.0,
1286.887,-210.0,
1286.907,-210.0,
1286.927,-210.0,
1286.947,-210.0,
1286.967,-210.0,
1286.987,-210.0,
1287.007,-210.0,
1287.027,-210.0,
1287.047,-210.0,
1287.067,-210.0,
1287.087,-210.0,
1287.107,-76.51,
1287.127,-69.9,
1287.147,-66.26,
1287.167,-69.39,
1287.187,-210.0,
1287.207,-210.0,
1287.227,-83.61,
1287.247,-86.44,
1287.267,-210.0,
1287.287,-70.1,
1287.307,-67.32,
1287.327,-65.59,
1287.347,-65.71,
1287.367,-70.35,
1287.387,-69.31,
1287.407,-67.35,
1287.427,-67.01,
1287.447,-64.79,
1287.467,-64.21,
1287.487,-62.99,
1287.507,-62.12,
1287.527,-62.85,
1287.547,-64.64,
1287.567,-66.68,
1287.587,-63.91,
1287.607,-63.24,
1287.627,-63.93,
1287.647,-65.11,
1287.667,-63.36,
1287.687,-62.98,
1287.707,-62.53,
1287.727,-64.79,
1287.747,-66.57,
1287.767,-63.29,
1287.787,-63.06,
1287.807,-66.27,
1287.827,-65.8,
1287.847,-62.87,
1287.867,-62.39,
1287.887,-63.02,
1287.907,-65.98,
1287.927,-66.46,
1287.947,-63.65,
1287.967,-63.55,
1287.987,-65.6,
1288.007,-66.29,
1288.027,-65.32,
1288.047,-63.95,
1288.067,-64.37,
1288.087,-69.37,
1288.107,-70.61,
1288.127,-75.15,
1288.147,-74.97,
1288.167,-210.0,
1288.187,-210.0,
1288.207,-100.51,
1288.227,-69.18,
1288.247,-73.92,
1288.267,-210.0,
1288.287,-210.0,
1288.307,-70.24,
1288.327,-210.0,
1288.347,-210.0,
1288.367,-210.0,
1288.387,-210.0,
1288.407,-77.98,
1288.427,-210.0,
1288.447,-210.0,
1288.467,-210.0,
1288.487,-210.0,
1288.507,-210.0,
1288.527,-210.0,
1288.547,-210.0,
1288.567,-210.0,
1288.587,-210.0,
1288.607,-210.0,
1288.627,-210.0,
1288.647,-210.0,
1288.667,-210.0,
1288.687,-210.0,
1288.707,-210.0,
1288.727,-210.0,
1288.747,-210.0,
1288.767,-210.0,
1288.787,-72.21,
1288.807,-70.08,
1288.827,-68.36,
1288.847,-66.43,
1288.867,-66.42,
1288.887,-70.92,
1288.907,-70.28,
1288.927,-66.23,
1288.947,-65.93,
1288.967,-210.0,
1288.987,-210.0,
1289.007,-67.42,
1289.027,-66.27,
1289.047,-69.34,
1289.067,-210.0,
1289.087,-210.0,
1289.107,-68.32,
1289.127,-69.37,
1289.147,-210.0,
1289.167,-72.0,
1289.188,-65.56,
1289.207,-65.75,
1289.227,-66.76,
1289.247,-210.0,
1289.267,-70.07,
1289.287,-75.74,
1289.307,-68.79,
1289.328,-210.0,
1289.347,-210.0,
1289.367,-74.56,
1289.387,-67.11,
1289.407,-74.09,
1289.427,-210.0,
1289.448,-210.0,
1289.468,-70.72,
1289.488,-210.0,
1289.507,-210.0,
1289.527,-210.0,
1289.547,-79.47,
1289.568,-68.58,
1289.588,-210.0,
1289.608,-210.0,
1289.628,-72.68,
1289.647,-67.58,
1289.667,-76.67,
1289.688,-210.0,
1289.708,-210.0,
1289.728,-210.0,
1289.748,-210.0,
1289.768,-210.0,
1289.787,-210.0,
1289.807,-210.0,
1289.828,-210.0,
1289.848,-210.0,
1289.868,-210.0,
1289.888,-210.0,
1289.908,-210.0,
1289.927,-210.0,
1289.948,-210.0,
1289.968,-210.0,
1289.988,-210.0,
1290.008,-70.92,
1290.028,-210.0,
1290.048,-210.0,
1290.068,-210.0,
1290.088,-70.48,
1290.108,-210.0,
1290.128,-210.0,
1290.148,-210.0,
1290.168,-75.08,
1290.188,-70.06,
1290.208,-210.0,
1290.228,-210.0,
1290.248,-210.0,
1290.268,-210.0,
1290.288,-210.0,
1290.308,-210.0,
1290.328,-210.0,
1290.348,-69.66,
1290.368,-71.36,
1290.388,-210.0,
1290.408,-210.0,
1290.428,-210.0,
1290.448,-210.0,
1290.468,-210.0,
1290.488,-210.0,
1290.508,-210.0,
1290.528,-68.61,
1290.548,-67.74,
1290.568,-83.16,
1290.588,-210.0,
1290.608,-68.05,
1290.628,-66.75,
1290.648,-82.56,
1290.668,-210.0,
1290.688,-210.0,
1290.708,-66.37,
1290.728,-65.55,
1290.748,-210.0,
1290.768,-210.0,
1290.788,-69.27,
1290.808,-70.12,
1290.828,-74.29,
1290.848,-210.0,
1290.868,-210.0,
1290.888,-66.38,
1290.908,-72.25,
1290.928,-210.0,
1290.948,-210.0,
1290.968,-71.04,
1290.988,-73.75,
1291.008,-210.0,
1291.028,-210.0,
1291.048,-69.06,
1291.068,-68.92,
1291.088,-210.0,
1291.108,-210.0,
1291.128,-210.0,
1291.148,-67.39,
1291.168,-68.08,
1291.188,-210.0,
1291.208,-210.0,
1291.228,-69.02,
1291.248,-64.01,
1291.268,-65.72,
1291.288,-84.86,
1291.308,-66.28,
1291.328,-64.22,
1291.348,-65.76,
1291.368,-210.0,
1291.388,-210.0,
1291.408,-64.93,
1291.428,-64.42,
1291.448,-72.11,
1291.468,-68.43,
1291.488,-63.52,
1291.508,-62.64,
1291.528,-65.28,
1291.548,-210.0,
1291.568,-68.0,
1291.588,-64.8,
1291.608,-69.14,
1291.628,-210.0,
1291.648,-210.0,
1291.668,-65.5,
1291.688,-64.37,
1291.708,-83.52,
1291.728,-210.0,
1291.748,-63.86,
1291.768,-63.94,
1291.788,-65.2,
1291.808,-210.0,
1291.828,-76.03,
1291.848,-64.39,
1291.868,-64.81,
1291.888,-210.0,
1291.908,-72.29,
1291.928,-64.06,
1291.948,-63.56,
1291.968,-64.88,
1291.988,-76.9,
1292.008,-67.54,
1292.028,-66.65,
1292.048,-74.5,
1292.068,-210.0,
1292.088,-87.43,
1292.108,-64.28,
1292.128,-64.48,
1292.148,-210.0,
1292.168,-210.0,
1292.188,-66.33,
1292.208,-64.99,
1292.228,-75.36,
1292.248,-210.0,
1292.268,-210.0,
1292.288,-65.42,
1292.308,-69.44,
1292.328,-210.0,
1292.348,-71.4,
1292.368,-64.43,
1292.388,-65.18,
1292.408,-210.0,
1292.428,-210.0,
1292.448,-67.28,
1292.468,-67.62,
1292.488,-210.0,
1292.508,-210.0,
1292.528,-76.05,
1292.548,-65.21,
1292.568,-66.87,
1292.588,-210.0,
1292.608,-67.2,
1292.628,-63.7,
1292.648,-63.99,
1292.668,-70.47,
1292.688,-210.0,
1292.708,-68.95,
1292.728,-67.23,
1292.748,-210.0,
1292.768,-210.0,
1292.788,-210.0,
1292.808,-67.79,
1292.828,-71.04,
1292.848,-210.0,
1292.868,-210.0,
1292.888,-67.33,
1292.908,-69.41,
1292.928,-210.0,
1292.948,-210.0,
1292.968,-210.0,
1292.988,-69.1,
1293.008,-71.85,
1293.028,-210.0,
1293.048,-68.04,
1293.068,-64.87,
1293.088,-65.49,
1293.108,-210.0,
1293.128,-210.0,
1293.148,-69.0,
1293.168,-67.56,
1293.188,-210.0,
1293.208,-210.0,
1293.228,-210.0,
1293.248,-68.13,
1293.268,-74.14,
1293.288,-210.0,
1293.308,-69.64,
1293.328,-66.45,
1293.348,-69.71,
1293.368,-210.0,
1293.388,-210.0,
1293.408,-70.5,
1293.428,-65.57,
1293.448,-71.17,
1293.468,-210.0,
1293.488,-65.29,
1293.508,-63.46,
1293.528,-65.5,
1293.548,-210.0,
1293.568,-210.0,
1293.588,-66.82,
1293.608,-72.36,
1293.628,-210.0,
1293.648,-210.0,
1293.668,-81.3,
1293.688,-65.82,
1293.708,-210.0,
1293.728,-210.0,
1293.748,-66.4,
1293.768,-64.57,
1293.788,-67.52,
1293.808,-210.0,
1293.828,-210.0,
1293.848,-65.83,
1293.868,-65.24,
1293.888,-210.0,
1293.908,-210.0,
1293.928,-64.96,
1293.948,-63.98,
1293.968,-65.72,
1293.988,-210.0,
1294.008,-73.31,
1294.028,-67.28,
1294.048,-75.46,
1294.068,-210.0,
1294.088,-210.0,
1294.108,-73.22,
1294.128,-69.08,
1294.148,-210.0,
1294.168,-210.0,
1294.188,-63.93,
1294.208,-62.68,
1294.228,-64.85,
1294.248,-210.0,
1294.268,-66.15,
1294.288,-65.87,
1294.308,-71.16,
1294.328,-210.0,
1294.348,-210.0,
1294.368,-66.72,
1294.388,-63.84,
1294.408,-71.09,
1294.428,-210.0,
1294.448,-66.38,
1294.468,-67.58,
1294.488,-210.0,
1294.508,-210.0,
1294.528,-210.0,
1294.548,-65.48,
1294.568,-67.34,
1294.588,-210.0,
1294.608,-68.22,
1294.628,-63.26,
1294.648,-62.66,
1294.668,-64.97,
1294.688,-72.75,
1294.708,-64.74,
1294.728,-63.66,
1294.748,-67.45,
1294.768,-210.0,
1294.788,-69.8,
1294.808,-65.09,
1294.828,-64.39,
1294.848,-76.23,
1294.868,-210.0,
1294.888,-67.07,
1294.908,-66.12,
1294.928,-74.44,
1294.948,-210.0,
1294.968,-210.0,
1294.988,-69.12,
1295.008,-67.76,
1295.028,-210.0,
1295.048,-67.96,
1295.068,-63.13,
1295.088,-63.39,
1295.108,-66.25,
1295.128,-77.32,
1295.148,-65.87,
1295.168,-66.01,
1295.188,-210.0,
1295.208,-210.0,
1295.228,-210.0,
1295.248,-65.25,
1295.268,-67.9,
1295.288,-210.0,
1295.308,-66.87,
1295.328,-63.74,
1295.348,-64.23,
1295.368,-78.05,
1295.388,-210.0,
1295.408,-69.72,
1295.428,-68.84,
1295.448,-210.0,
1295.468,-210.0,
1295.488,-73.34,
1295.508,-65.95,
1295.528,-67.11,
1295.548,-210.0,
1295.568,-210.0,
1295.588,-66.39,
1295.608,-76.18,
1295.628,-210.0,
1295.648,-210.0,
1295.668,-210.0,
1295.688,-76.36,
1295.708,-210.0,
1295.728,-210.0,
1295.748,-210.0,
1295.768,-75.22,
1295.788,-84.3,
1295.808,-210.0,
1295.828,-210.0,
1295.848,-68.77,
1295.868,-66.09,
1295.888,-210.0,
1295.908,-210.0,
1295.928,-68.64,
1295.948,-67.19,
1295.968,-71.26,
1295.988,-210.0,
1296.008,-68.4,
1296.028,-65.96,
1296.048,-71.33,
1296.068,-210.0,
1296.088,-210.0,
1296.108,-66.32,
1296.128,-65.08,
1296.148,-210.0,
1296.168,-210.0,
1296.188,-68.45,
1296.208,-65.34,
1296.228,-210.0,
1296.248,-210.0,
1296.268,-210.0,
1296.288,-66.93,
1296.308,-69.62,
1296.328,-210.0,
1296.348,-210.0,
1296.368,-66.51,
1296.388,-64.74,
1296.408,-210.0,
1296.428,-210.0,
1296.448,-65.42,
1296.468,-67.8,
1296.488,-210.0,
1296.508,-210.0,
1296.528,-210.0,
1296.548,-66.79,
1296.568,-73.24,
1296.588,-210.0,
1296.608,-75.03,
1296.628,-64.46,
1296.648,-64.23,
1296.668,-210.0,
1296.688,-210.0,
1296.708,-64.54,
1296.728,-63.64,
1296.748,-66.83,
1296.768,-210.0,
1296.788,-67.24,
1296.808,-66.9,
1296.828,-82.18,
1296.848,-210.0,
1296.868,-210.0,
1296.888,-67.2,
1296.908,-67.88,
1296.928,-210.0,
1296.948,-72.37,
1296.968,-64.68,
1296.988,-65.76,
1297.008,-74.72,
1297.028,-210.0,
1297.048,-66.79,
1297.068,-66.28,
1297.088,-210.0,
1297.108,-210.0,
1297.128,-210.0,
1297.148,-66.1,
1297.168,-64.7,
1297.188,-210.0,
1297.208,-67.39,
1297.229,-63.0,
1297.248,-62.55,
1297.268,-67.58,
1297.288,-210.0,
1297.308,-65.41,
1297.328,-66.03,
1297.349,-210.0,
1297.369,-210.0,
1297.388,-82.17,
1297.408,-65.49,
1297.428,-68.3,
1297.448,-210.0,
1297.469,-70.26,
1297.489,-63.75,
1297.509,-63.3,
1297.528,-71.05,
1297.548,-210.0,
1297.568,-65.84,
1297.589,-66.87,
1297.609,-210.0,
1297.629,-210.0,
1297.649,-82.83,
1297.668,-64.46,
1297.688,-67.43,
1297.708,-210.0,
1297.729,-72.61,
1297.749,-64.47,
1297.769,-65.89,
1297.789,-210.0,
1297.808,-210.0,
1297.828,-65.63,
1297.849,-67.29,
1297.869,-210.0,
1297.889,-210.0,
1297.909,-210.0,
1297.929,-69.53,
1297.948,-210.0,
1297.969,-210.0,
1297.989,-210.0,
1298.009,-69.39,
1298.029,-72.17,
1298.049,-210.0,
1298.069,-210.0,
1298.089,-67.55,
1298.109,-77.92,
1298.129,-210.0,
1298.149,-210.0,
1298.169,-210.0,
1298.189,-210.0,
1298.209,-210.0,
1298.229,-210.0,
1298.249,-210.0,
1298.269,-210.0,
1298.289,-210.0,
1298.309,-210.0,
1298.329,-210.0,
1298.349,-77.45,
1298.369,-210.0,
1298.389,-210.0,
1298.409,-210.0,
1298.429,-210.0,
1298.449,-210.0,
1298.469,-210.0,
1298.489,-210.0,
1298.509,-210.0,
1298.529,-210.0,
1298.549,-210.0,
1298.569,-210.0,
1298.589,-210.0,
1298.609,-69.84,
1298.629,-210.0,
1298.649,-210.0,
1298.669,-210.0,
1298.689,-210.0,
1298.709,-210.0,
1298.729,-210.0,
1298.749,-210.0,
1298.769,-210.0,
1298.789,-210.0,
1298.809,-210.0,
1298.829,-210.0,
1298.849,-210.0,
1298.869,-69.36,
1298.889,-69.64,
1298.909,-210.0,
1298.929,-210.0,
1298.949,-66.57,
1298.969,-69.08,
1298.989,-210.0,
1299.009,-210.0,
1299.029,-71.48,
1299.049,-68.38,
1299.069,-210.0,
1299.089,-210.0,
1299.109,-210.0,
1299.129,-68.04,
1299.149,-80.0,
1299.169,-210.0,
1299.189,-69.3,
1299.209,-67.03,
1299.229,-66.13,
1299.249,-210.0,
1299.269,-210.0,
1299.289,-66.07,
1299.309,-69.16,
1299.329,-210.0,
1299.349,-210.0,
1299.369,-67.07,
1299.389,-66.15,
1299.409,-70.34,
1299.429,-210.0,
1299.449,-67.32,
1299.469,-64.15,
1299.489,-66.37,
1299.509,-210.0,
1299.529,-210.0,
1299.549,-71.22,
1299.569,-210.0,
1299.589,-210.0,
1299.609,-210.0,
1299.629,-73.38,
1299.649,-67.04,
1299.669,-210.0,
1299.689,-210.0,
1299.709,-66.22,
1299.729,-66.09,
1299.749,-70.83,
1299.769,-210.0,
1299.789,-210.0,
1299.809,-73.53,
1299.829,-210.0,
1299.849,-210.0,
1299.869,-210.0,
1299.889,-210.0,
1299.909,-210.0,
1299.929,-210.0,
1299.949,-210.0,
1299.969,-210.0,
1299.989,-210.0,
1300.009,-210.0,
1300.029,-210.0,
1300.049,-210.0,
1300.069,-70.1,
1300.089,-210.0,
1300.109,-210.0,
1300.129,-76.63,
1300.149,-64.61,
1300.169,-210.0,
1300.189,-210.0,
1300.209,-210.0,
1300.229,-210.0,
1300.249,-210.0,
1300.269,-210.0,
1300.289,-210.0,
1300.309,-210.0,
1300.329,-210.0,
1300.349,-210.0,
1300.369,-210.0,
1300.389,-210.0,
1300.409,-75.46,
1300.429,-210.0,
1300.449,-210.0,
1300.469,-210.0,
1300.489,-210.0,
1300.509,-210.0,
1300.529,-210.0,
1300.549,-210.0,
1300.569,-78.81,
1300.589,-210.0,
1300.609,-210.0,
1300.629,-210.0,
1300.649,-76.59,
1300.669,-71.97,
1300.689,-210.0,
1300.709,-210.0,
1300.729,-210.0,
1300.749,-67.28,
1300.769,-210.0,
1300.789,-210.0,
1300.809,-210.0,
1300.829,-210.0,
1300.849,-210.0,
1300.869,-210.0,
1300.889,-77.11,
1300.909,-65.42,
1300.929,-75.88,
1300.949,-210.0,
1300.969,-72.33,
1300.989,-65.54,
1301.009,-68.08,
1301.029,-210.0,
1301.049,-210.0,
1301.069,-78.23,
1301.089,-210.0,
1301.109,-210.0,
1301.129,-210.0,
1301.149,-210.0,
1301.169,-210.0,
1301.189,-210.0,
1301.209,-210.0,
1301.229,-210.0,
1301.249,-67.57,
1301.269,-68.68,
1301.289,-210.0,
1301.309,-210.0,
1301.329,-68.81,
1301.349,-70.42,
1301.369,-210.0,
1301.389,-210.0,
1301.409,-71.02,
1301.429,-210.0,
1301.449,-210.0,
1301.469,-210.0,
1301.489,-210.0,
1301.509,-67.36,
1301.529,-210.0,
1301.549,-210.0,
1301.569,-67.86,
1301.589,-65.47,
1301.609,-69.64,
1301.629,-210.0,
1301.649,-210.0,
1301.669,-69.25,
1301.689,-210.0,
1301.709,-210.0,
1301.729,-210.0,
1301.749,-78.26,
1301.769,-70.35,
1301.789,-210.0,
1301.809,-210.0,
1301.829,-67.17,
1301.849,-66.88,
1301.869,-74.73,
1301.889,-210.0,
1301.909,-66.01,
1301.929,-64.51,
1301.949,-75.74,
1301.969,-210.0,
1301.989,-210.0,
1302.009,-210.0,
1302.029,-210.0,
1302.049,-210.0,
1302.069,-210.0,
1302.089,-68.53,
1302.109,-210.0,
1302.129,-74.3,
1302.149,-210.0,
1302.169,-67.36,
1302.189,-66.25,
1302.209,-210.0,
1302.229,-74.9,
1302.249,-210.0,
1302.269,-66.88,
1302.289,-210.0,
1302.309,-210.0,
1302.329,-210.0,
1302.349,-83.15,
1302.369,-210.0,
1302.389,-210.0,
1302.409,-210.0,
1302.429,-70.49,
1302.449,-210.0,
1302.469,-210.0,
1302.489,-210.0,
1302.509,-210.0,
1302.529,-210.0,
1302.549,-210.0,
1302.569,-210.0,
1302.589,-210.0,
1302.609,-74.12,
1302.629,-210.0,
1302.649,-210.0,
1302.669,-210.0,
1302.689,-210.0,
1302.709,-210.0,
1302.729,-210.0,
1302.749,-210.0,
1302.769,-210.0,
1302.789,-210.0,
1302.809,-210.0,
1302.829,-210.0,
1302.849,-210.0,
1302.869,-210.0,
1302.889,-210.0,
1302.909,-210.0,
1302.929,-210.0,
1302.949,-210.0,
1302.969,-210.0,
1302.989,-210.0,
1303.009,-82.0,
1303.029,-76.97,
1303.049,-210.0,
1303.069,-210.0,
1303.089,-73.44,
1303.109,-210.0,
1303.129,-210.0,
1303.149,-210.0,
1303.169,-210.0,
1303.189,-210.0,
1303.209,-210.0,
1303.229,-210.0,
1303.249,-210.0,
1303.269,-210.0,
1303.289,-210.0,
1303.309,-210.0,
1303.329,-210.0,
1303.349,-74.58,
1303.369,-79.65,
1303.389,-210.0,
1303.409,-210.0,
1303.429,-70.07,
1303.449,-79.41,
1303.469,-210.0,
1303.489,-210.0,
1303.509,-210.0,
1303.529,-72.13,
1303.549,-210.0,
1303.569,-210.0,
1303.589,-210.0,
1303.609,-210.0,
1303.629,-210.0,
1303.649,-210.0,
1303.669,-210.0,
1303.689,-76.89,
1303.709,-210.0,
1303.729,-210.0,
1303.749,-210.0,
1303.769,-210.0,
1303.789,-210.0,
1303.809,-210.0,
1303.829,-210.0,
1303.849,-210.0,
1303.869,-210.0,
1303.889,-210.0,
1303.909,-210.0,
1303.929,-210.0,
1303.949,-210.0,
1303.969,-210.0,
1303.989,-210.0,
1304.009,-210.0,
1304.029,-210.0,
1304.049,-75.67,
1304.069,-210.0,
1304.089,-80.61,
1304.109,-210.0,
1304.129,-210.0,
1304.149,-82.8,
1304.169,-210.0,
1304.189,-210.0,
1304.209,-210.0,
1304.229,-210.0,
1304.249,-210.0,
1304.269,-210.0,
1304.289,-210.0,
1304.309,-210.0,
1304.329,-210.0,
1304.349,-210.0,
1304.369,-210.0,
1304.389,-210.0,
1304.409,-210.0,
1304.429,-210.0,
1304.449,-210.0,
1304.469,-67.92,
1304.489,-210.0,
1304.509,-210.0,
1304.529,-210.0,
1304.549,-74.25,
1304.569,-210.0,
1304.589,-210.0,
1304.609,-210.0,
1304.629,-210.0,
1304.649,-71.5,
1304.669,-210.0,
1304.689,-210.0,
1304.709,-210.0,
1304.729,-210.0,
1304.749,-210.0,
1304.769,-210.0,
1304.789,-210.0,
1304.809,-210.0,
1304.829,-210.0,
1304.849,-210.0,
1304.869,-74.5,
1304.889,-210.0,
1304.909,-210.0,
1304.929,-210.0,
1304.949,-210.0,
1304.969,-210.0,
1304.989,-210.0,
1305.009,-71.4,
1305.029,-210.0,
1305.049,-78.92,
1305.069,-84.39,
1305.089,-71.65,
1305.109,-68.88,
1305.129,-210.0,
1305.149,-72.03,
1305.169,-71.69,
1305.189,-71.84,
1305.209,-210.0,
1305.229,-72.33,
1305.25,-86.18,
1305.269,-210.0,
1305.289,-71.11,
1305.309,-210.0,
1305.329,-69.73,
1305.349,-210.0,
1305.37,-71.47,
1305.39,-76.57,
1305.409,-210.0,
1305.429,-77.32,
1305.449,-210.0,
1305.469,-70.15,
1305.49,-68.47,
1305.51,-65.32,
1305.53,-82.69,
1305.549,-69.81,
1305.569,-74.77,
1305.589,-71.8,
1305.609,-69.02,
1305.63,-210.0,
1305.65,-210.0,
1305.67,-69.29,
1305.689,-210.0,
1305.709,-210.0,
1305.729,-77.39,
1305.75,-65.08,
1305.77,-70.82,
1305.79,-68.37,
1305.81,-70.4,
1305.83,-65.13,
1305.849,-64.94,
1305.87,-65.36,
1305.89,-66.35,
1305.91,-64.41,
1305.93,-64.59,
1305.95,-67.3,
1305.97,-71.69,
1305.99,-68.86,
1306.01,-71.92,
1306.03,-210.0,
1306.05,-210.0,
1306.07,-210.0,
1306.09,-210.0,
1306.11,-210.0,
1306.13,-210.0,
1306.15,-210.0,
1306.17,-210.0,
1306.19,-74.69,
1306.21,-84.51,
1306.23,-70.67,
1306.25,-65.36,
1306.27,-68.65,
1306.29,-77.81,
1306.31,-72.38,
1306.33,-65.94,
1306.35,-67.6,
1306.37,-73.4,
1306.39,-70.05,
1306.41,-64.99,
1306.43,-66.26,
1306.45,-68.49,
1306.47,-69.99,
1306.49,-210.0,
1306.51,-66.12,
1306.53,-68.85,
1306.55,-70.56,
1306.57,-66.26,
1306.59,-64.78,
1306.61,-65.05,
1306.63,-64.37,
1306.65,-65.8,
1306.67,-63.98,
1306.69,-64.13,
1306.71,-63.25,
1306.73,-65.83,
1306.75,-64.63,
1306.77,-66.11,
1306.79,-65.84,
1306.81,-64.5,
1306.83,-69.22,
1306.85,-74.52,
1306.87,-68.34,
1306.89,-68.21,
1306.91,-68.9,
1306.93,-69.0,
1306.95,-64.94,
1306.97,-66.74,
1306.99,-65.5,
1307.01,-64.2,
1307.03,-62.37,
1307.05,-63.84,
1307.07,-63.28,
1307.09,-62.91,
1307.11,-63.54,
1307.13,-62.35,
1307.15,-62.6,
1307.17,-64.35,
1307.19,-65.61,
1307.21,-65.16,
1307.23,-65.99,
1307.25,-69.53,
1307.27,-64.64,
1307.29,-66.73,
1307.31,-65.6,
1307.33,-74.58,
1307.35,-66.22,
1307.37,-63.76,
1307.39,-65.36,
1307.41,-66.0,
1307.43,-65.42,
1307.45,-64.27,
1307.47,-65.28,
1307.49,-66.27,
1307.51,-73.87,
1307.53,-66.73,
1307.55,-66.71,
1307.57,-72.2,
1307.59,-68.32,
1307.61,-75.22,
1307.63,-76.49,
1307.65,-210.0,
1307.67,-210.0,
1307.69,-210.0,
1307.71,-210.0,
1307.73,-210.0,
1307.75,-210.0,
1307.77,-210.0,
1307.79,-210.0,
1307.81,-210.0,
1307.83,-210.0,
1307.85,-210.0,
1307.87,-210.0,
1307.89,-210.0,
1307.91,-210.0,
1307.93,-210.0,
1307.95,-210.0,
1307.97,-210.0,
1307.99,-210.0,
1308.01,-210.0,
1308.03,-210.0,
1308.05,-210.0,
1308.07,-210.0,
1308.09,-210.0,
1308.11,-86.54,
1308.13,-210.0,
1308.15,-210.0,
1308.17,-70.97,
1308.19,-68.85,
1308.21,-80.2,
1308.23,-210.0,
1308.25,-210.0,
1308.27,-67.96,
1308.29,-210.0,
1308.31,-210.0,
1308.33,-72.7,
1308.35,-67.45,
1308.37,-210.0,
1308.39,-210.0,
1308.41,-210.0,
1308.43,-210.0,
1308.45,-210.0,
1308.47,-210.0,
1308.49,-210.0,
1308.51,-210.0,
1308.53,-210.0,
1308.55,-210.0,
1308.57,-210.0,
1308.59,-210.0,
1308.61,-210.0,
1308.63,-210.0,
1308.65,-210.0,
1308.67,-210.0,
1308.69,-210.0,
1308.71,-210.0,
1308.73,-210.0,
1308.75,-70.87,
1308.77,-210.0,
1308.79,-210.0,
1308.81,-210.0,
1308.83,-66.22,
1308.85,-69.05,
1308.87,-210.0,
1308.89,-68.76,
1308.91,-65.92,
1308.93,-66.47,
1308.95,-210.0,
1308.97,-210.0,
1308.99,-77.54,
1309.01,-69.72,
1309.03,-210.0,
1309.05,-210.0,
1309.07,-210.0,
1309.09,-210.0,
1309.11,-210.0,
1309.13,-210.0,
1309.15,-210.0,
1309.17,-74.8,
1309.19,-210.0,
1309.21,-210.0,
1309.23,-70.23,
1309.25,-68.58,
1309.27,-210.0,
1309.29,-210.0,
1309.31,-210.0,
1309.33,-72.77,
1309.35,-210.0,
1309.37,-210.0,
1309.39,-210.0,
1309.41,-210.0,
1309.43,-210.0,
1309.45,-210.0,
1309.47,-210.0,
1309.49,-74.81,
1309.51,-69.79,
1309.53,-210.0,
1309.55,-68.69,
1309.57,-66.06,
1309.59,-71.29,
1309.61,-69.7,
1309.63,-63.3,
1309.65,-63.31,
1309.67,-64.43,
1309.69,-66.0,
1309.71,-63.47,
1309.73,-63.2,
1309.75,-63.94,
1309.77,-70.7,
1309.79,-65.26,
1309.81,-63.88,
1309.83,-65.26,
1309.85,-77.99,
1309.87,-68.16,
1309.89,-65.06,
1309.91,-67.12,
1309.93,-210.0,
1309.95,-68.74,
1309.97,-64.17,
1309.99,-69.59,
1310.01,-210.0,
1310.03,-65.62,
1310.05,-64.21,
1310.07,-67.73,
1310.09,-210.0,
1310.11,-68.3,
1310.13,-65.1,
1310.15,-69.17,
1310.17,-210.0,
1310.19,-84.5,
1310.21,-68.57,
1310.23,-210.0,
1310.25,-210.0,
1310.27,-210.0,
1310.29,-65.16,
1310.31,-69.27,
1310.33,-210.0,
1310.35,-72.92,
1310.37,-64.87,
1310.39,-68.75,
1310.41,-210.0,
1310.43,-66.23,
1310.45,-62.53,
1310.47,-63.62,
1310.49,-210.0,
1310.51,-69.97,
1310.53,-64.22,
1310.55,-68.43,
1310.57,-210.0,
1310.59,-210.0,
1310.61,-67.37,
1310.63,-210.0,
1310.65,-210.0,
1310.67,-210.0,
1310.69,-210.0,
1310.71,-210.0,
1310.73,-210.0,
1310.75,-210.0,
1310.77,-210.0,
1310.79,-210.0,
1310.81,-210.0,
1310.83,-210.0,
1310.85,-210.0,
1310.87,-210.0,
1310.89,-210.0,
1310.91,-210.0,
1310.93,-210.0,
1310.95,-210.0,
1310.97,-210.0,
1310.99,-210.0,
1311.01,-68.35,
1311.03,-71.0,
1311.05,-210.0,
1311.07,-69.36,
1311.09,-64.29,
1311.11,-65.6,
1311.13,-210.0,
1311.15,-210.0,
1311.17,-64.93,
1311.19,-66.12,
1311.21,-79.99,
1311.23,-72.16,
1311.25,-64.91,
1311.27,-67.43,
1311.29,-210.0,
1311.31,-210.0,
1311.33,-70.67,
1311.35,-210.0,
1311.37,-210.0,
1311.39,-210.0,
1311.41,-210.0,
1311.43,-210.0,
1311.45,-210.0,
1311.47,-210.0,
1311.49,-210.0,
1311.51,-210.0,
1311.53,-210.0,
1311.55,-210.0,
1311.57,-210.0,
1311.59,-210.0,
1311.61,-210.0,
1311.63,-210.0,
1311.65,-210.0,
1311.67,-210.0,
1311.69,-210.0,
1311.71,-210.0,
1311.73,-65.83,
1311.75,-66.1,
1311.77,-72.59,
1311.79,-66.71,
1311.81,-63.61,
1311.83,-63.24,
1311.85,-68.78,
1311.87,-71.22,
1311.89,-63.81,
1311.91,-63.22,
1311.93,-67.82,
1311.95,-79.6,
1311.97,-64.07,
1311.99,-64.87,
1312.01,-70.09,
1312.03,-210.0,
1312.05,-210.0,
1312.07,-210.0,
1312.09,-210.0,
1312.11,-210.0,
1312.13,-210.0,
1312.15,-210.0,
1312.17,-210.0,
1312.19,-210.0,
1312.21,-210.0,
1312.23,-210.0,
1312.25,-210.0,
1312.27,-210.0,
1312.29,-210.0,
1312.31,-210.0,
1312.33,-210.0,
1312.35,-210.0,
1312.37,-210.0,
1312.39,-210.0,
1312.41,-210.0,
1312.43,-210.0,
1312.45,-210.0,
1312.47,-75.84,
1312.49,-210.0,
1312.51,-210.0,
1312.53,-71.17,
1312.55,-67.72,
1312.57,-210.0,
1312.59,-210.0,
1312.61,-65.42,
1312.63,-64.66,
1312.65,-70.94,
1312.67,-210.0,
1312.69,-66.77,
1312.71,-66.1,
1312.73,-210.0,
1312.75,-210.0,
1312.77,-210.0,
1312.79,-210.0,
1312.81,-210.0,
1312.83,-210.0,
1312.85,-75.69,
1312.87,-95.13,
1312.89,-210.0,
1312.91,-210.0,
1312.93,-70.51,
1312.95,-72.14,
1312.97,-210.0,
1312.99,-210.0,
1313.01,-210.0,
1313.03,-210.0,
1313.05,-210.0,
1313.07,-210.0,
1313.09,-75.31,
1313.11,-76.57,
1313.13,-210.0,
1313.15,-210.0,
1313.17,-210.0,
1313.19,-82.0,
1313.21,-210.0,
1313.23,-210.0,
1313.25,-81.64,
1313.271,-210.0,
1313.29,-210.0,
1313.31,-210.0,
1313.33,-72.67,
1313.35,-210.0,
1313.37,-210.0,
1313.391,-210.0,
1313.411,-210.0,
1313.431,-210.0,
1313.45,-210.0,
1313.47,-210.0,
1313.49,-210.0,
1313.51,-210.0,
1313.531,-210.0,
1313.551,-210.0,
1313.571,-210.0,
1313.59,-210.0,
1313.61,-210.0,
1313.63,-210.0,
1313.651,-210.0,
1313.671,-210.0,
1313.691,-210.0,
1313.711,-210.0,
1313.73,-210.0,
1313.75,-210.0,
1313.771,-210.0,
1313.791,-210.0,
1313.811,-210.0,
1313.831,-210.0,
1313.851,-210.0,
1313.87,-210.0,
1313.891,-210.0,
1313.911,-210.0,
1313.931,-210.0,
1313.951,-210.0,
1313.971,-210.0,
1313.991,-210.0,
1314.01,-210.0,
1314.031,-210.0,
1314.051,-210.0,
1314.071,-210.0,
1314.091,-210.0,
1314.111,-210.0,
1314.131,-210.0,
1314.151,-210.0,
1314.171,-210.0,
1314.191,-210.0,
1314.211,-210.0,
1314.231,-210.0,
1314.251,-210.0,
1314.271,-210.0,
1314.291,-210.0,
1314.311,-210.0,
1314.331,-210.0,
1314.351,-210.0,
1314.371,-67.99,
1314.391,-73.26,
1314.411,-210.0,
1314.431,-71.03,
1314.451,-66.1,
1314.471,-68.23,
1314.491,-80.73,
1314.511,-66.36,
1314.531,-62.63,
1314.551,-63.35,
1314.571,-70.76,
1314.591,-62.93,
1314.611,-61.6,
1314.631,-62.15,
1314.651,-65.13,
1314.671,-64.86,
1314.691,-61.82,
1314.711,-62.04,
1314.731,-66.99,
1314.751,-67.68,
1314.771,-63.02,
1314.791,-64.1,
1314.811,-77.35,
1314.831,-210.0,
1314.851,-63.95,
1314.871,-65.9,
1314.891,-210.0,
1314.911,-210.0,
1314.931,-63.55,
1314.951,-65.13,
1314.971,-210.0,
1314.991,-70.17,
1315.011,-63.79,
1315.031,-66.9,
1315.051,-72.52,
1315.071,-66.75,
1315.091,-62.95,
1315.111,-66.95,
1315.131,-210.0,
1315.151,-66.5,
1315.171,-63.61,
1315.191,-67.29,
1315.211,-210.0,
1315.231,-71.59,
1315.251,-64.49,
1315.271,-76.65,
1315.291,-210.0,
1315.311,-210.0,
1315.331,-67.32,
1315.351,-210.0,
1315.371,-210.0,
1315.391,-210.0,
1315.411,-210.0,
1315.431,-210.0,
1315.451,-210.0,
1315.471,-210.0,
1315.491,-210.0,
1315.511,-210.0,
1315.531,-210.0,
1315.551,-210.0,
1315.571,-210.0,
1315.591,-210.0,
1315.611,-210.0,
1315.631,-210.0,
1315.651,-210.0,
1315.671,-210.0,
1315.691,-210.0,
1315.711,-210.0,
1315.731,-210.0,
1315.751,-210.0,
1315.771,-210.0,
1315.791,-210.0,
1315.811,-210.0,
1315.831,-210.0,
1315.851,-210.0,
1315.871,-210.0,
1315.891,-67.19,
1315.911,-77.95,
1315.931,-210.0,
1315.951,-68.89,
1315.971,-64.74,
1315.991,-72.06,
1316.011,-210.0,
1316.031,-65.23,
1316.051,-64.26,
1316.071,-73.59,
1316.091,-68.88,
1316.111,-63.58,
1316.131,-63.1,
1316.151,-66.81,
1316.171,-64.65,
1316.191,-62.46,
1316.211,-61.12,
1316.231,-64.29,
1316.251,-65.55,
1316.271,-60.65,
1316.291,-60.92,
1316.311,-64.29,
1316.331,-64.69,
1316.351,-61.1,
1316.371,-61.46,
1316.391,-66.34,
1316.411,-65.79,
1316.431,-61.79,
1316.451,-62.39,
1316.471,-68.84,
1316.491,-64.78,
1316.511,-62.03,
1316.531,-62.35,
1316.551,-74.73,
1316.571,-64.81,
1316.591,-62.63,
1316.611,-64.72,
1316.631,-210.0,
1316.651,-68.68,
1316.671,-63.86,
1316.691,-66.85,
1316.711,-210.0,
1316.731,-72.38,
1316.751,-65.88,
1316.771,-210.0,
1316.791,-210.0,
1316.811,-78.24,
1316.831,-70.86,
1316.851,-210.0,
1316.871,-210.0,
1316.891,-210.0,
1316.911,-210.0,
1316.931,-210.0,
1316.951,-210.0,
1316.971,-210.0,
1316.991,-210.0,
1317.011,-210.0,
1317.031,-210.0,
1317.051,-210.0,
1317.071,-210.0,
1317.091,-210.0,
1317.111,-210.0,
1317.131,-210.0,
1317.151,-210.0,
1317.171,-210.0,
1317.191,-210.0,
1317.211,-210.0,
1317.231,-210.0,
1317.251,-210.0,
1317.271,-210.0,
1317.291,-210.0,
1317.311,-210.0,
1317.331,-210.0,
1317.351,-210.0,
1317.371,-210.0,
1317.391,-210.0,
1317.411,-210.0,
1317.431,-210.0,
1317.451,-210.0,
1317.471,-210.0,
1317.491,-210.0,
1317.511,-210.0,
1317.531,-210.0,
1317.551,-210.0,
1317.571,-210.0,
1317.591,-210.0,
1317.611,-210.0,
1317.631,-210.0,
1317.651,-210.0,
1317.671,-210.0,
1317.691,-210.0,
1317.711,-210.0,
1317.731,-210.0,
1317.751,-210.0,
1317.771,-210.0,
1317.791,-210.0,
1317.811,-210.0,
1317.831,-210.0,
1317.851,-210.0,
1317.871,-210.0,
1317.891,-210.0,
1317.911,-210.0,
1317.931,-210.0,
1317.951,-210.0,
1317.971,-210.0,
1317.991,-210.0,
1318.011,-210.0,
1318.031,-210.0,
1318.051,-210.0,
1318.071,-210.0,
1318.091,-210.0,
1318.111,-210.0,
1318.131,-210.0,
1318.151,-210.0,
1318.171,-210.0,
1318.191,-210.0,
1318.211,-210.0,
1318.231,-210.0,
1318.251,-210.0,
1318.271,-210.0,
1318.291,-210.0,
1318.311,-210.0,
1318.331,-210.0,
1318.351,-210.0,
1318.371,-210.0,
1318.391,-210.0,
1318.411,-210.0,
1318.431,-210.0,
1318.451,-210.0,
1318.471,-210.0,
1318.491,-210.0,
1318.511,-210.0,
1318.531,-210.0,
1318.551,-210.0,
1318.571,-210.0,
1318.591,-210.0,
1318.611,-210.0,
1318.631,-210.0,
1318.651,-210.0,
1318.671,-210.0,
1318.691,-210.0,
1318.711,-68.01,
1318.731,-210.0,
1318.751,-210.0,
1318.771,-210.0,
1318.791,-65.49,
1318.811,-210.0,
1318.831,-210.0,
1318.851,-66.76,
1318.871,-62.81,
1318.891,-69.75,
1318.911,-83.55,
1318.931,-63.66,
1318.951,-63.38,
1318.971,-67.68,
1318.991,-67.58,
1319.011,-64.07,
1319.031,-62.11,
1319.051,-66.34,
1319.071,-65.03,
1319.091,-62.06,
1319.111,-61.38,
1319.131,-63.87,
1319.151,-63.08,
1319.171,-61.31,
1319.191,-61.7,
1319.211,-65.57,
1319.231,-63.22,
1319.251,-60.59,
1319.271,-62.8,
1319.291,-66.27,
1319.311,-65.14,
1319.331,-61.32,
1319.351,-62.82,
1319.371,-65.29,
1319.391,-68.16,
1319.411,-63.29,
1319.431,-65.35,
1319.451,-69.29,
1319.471,-68.56,
1319.491,-63.46,
1319.511,-71.94,
1319.531,-210.0,
1319.551,-73.08,
1319.571,-64.67,
1319.591,-210.0,
1319.611,-210.0,
1319.631,-210.0,
1319.651,-67.04,
1319.671,-210.0,
1319.691,-210.0,
1319.711,-210.0,
1319.731,-210.0,
1319.751,-210.0,
1319.771,-210.0,
1319.791,-210.0,
1319.811,-210.0,
1319.831,-210.0,
1319.851,-210.0,
1319.871,-210.0,
1319.891,-210.0,
1319.911,-210.0,
1319.931,-210.0,
1319.951,-210.0,
1319.971,-210.0,
1319.991,-210.0,
1320.011,-210.0,
1320.031,-210.0,
1320.051,-210.0,
1320.071,-210.0,
1320.091,-210.0,
1320.111,-210.0,
1320.131,-210.0,
1320.151,-210.0,
1320.171,-210.0,
1320.191,-210.0,
1320.211,-210.0,
1320.231,-210.0,
1320.251,-210.0,
1320.271,-210.0,
1320.291,-210.0,
1320.311,-210.0,
1320.331,-210.0,
1320.351,-210.0,
1320.371,-210.0,
1320.391,-210.0,
1320.411,-210.0,
1320.431,-210.0,
1320.451,-210.0,
1320.471,-210.0,
1320.491,-210.0,
1320.511,-210.0,
1320.531,-210.0,
1320.551,-210.0,
1320.571,-210.0,
1320.591,-210.0,
1320.611,-210.0,
1320.631,-210.0,
1320.651,-210.0,
1320.671,-210.0,
1320.691,-210.0,
1320.711,-210.0,
1320.731,-210.0,
1320.751,-210.0,
1320.771,-210.0,
1320.791,-210.0,
1320.811,-210.0,
1320.831,-210.0,
1320.851,-210.0,
1320.871,-210.0,
1320.891,-210.0,
1320.911,-210.0,
1320.931,-210.0,
1320.951,-210.0,
1320.971,-210.0,
1320.991,-210.0,
1321.011,-210.0,
1321.031,-210.0,
1321.051,-210.0,
1321.071,-210.0,
1321.091,-210.0,
1321.111,-210.0,
1321.131,-210.0,
1321.151,-210.0,
1321.172,-210.0,
1321.191,-210.0,
1321.211,-210.0,
1321.231,-210.0,
1321.251,-210.0,
1321.271,-70.05,
1321.292,-81.89,
1321.312,-210.0,
1321.331,-77.14,
1321.351,-71.14,
1321.371,-210.0,
1321.391,-210.0,
1321.411,-210.0,
1321.432,-210.0,
1321.452,-210.0,
1321.471,-210.0,
1321.491,-210.0,
1321.511,-210.0,
1321.531,-210.0,
1321.552,-210.0,
1321.572,-210.0,
1321.592,-210.0,
1321.611,-210.0,
1321.631,-210.0,
1321.651,-210.0,
1321.672,-210.0,
1321.692,-210.0,
1321.712,-210.0,
1321.732,-210.0,
1321.751,-210.0,
1321.771,-210.0,
1321.792,-210.0,
1321.812,-210.0,
1321.832,-210.0,
1321.852,-210.0,
1321.872,-210.0,
1321.891,-210.0,
1321.911,-210.0,
1321.932,-210.0,
1321.952,-210.0,
1321.972,-210.0,
1321.992,-210.0,
1322.012,-210.0,
1322.032,-210.0,
1322.052,-210.0,
1322.072,-210.0,
1322.092,-210.0,
1322.112,-210.0,
1322.132,-210.0,
1322.152,-210.0,
1322.172,-210.0,
1322.192,-210.0,
1322.212,-210.0,
1322.232,-210.0,
1322.252,-210.0,
1322.272,-210.0,
1322.292,-210.0,
1322.312,-210.0,
1322.332,-210.0,
1322.352,-210.0,
1322.372,-210.0,
1322.392,-210.0,
1322.412,-210.0,
1322.432,-210.0,
1322.452,-210.0,
1322.472,-210.0,
1322.492,-210.0,
1322.512,-210.0,
1322.532,-210.0,
1322.552,-210.0,
1322.572,-210.0,
1322.592,-210.0,
1322.612,-210.0,
1322.632,-210.0,
1322.652,-210.0,
1322.672,-210.0,
1322.692,-210.0,
1322.712,-210.0,
1322.732,-210.0,
1322.752,-210.0,
1322.772,-210.0,
1322.792,-210.0,
1322.812,-210.0,
1322.832,-210.0,
1322.852,-210.0,
1322.872,-210.0,
1322.892,-210.0,
1322.912,-210.0,
1322.932,-210.0,
1322.952,-210.0,
1322.972,-210.0,
1322.992,-210.0,
1323.012,-210.0,
1323.032,-210.0,
1323.052,-210.0,
1323.072,-210.0,
1323.092,-210.0,
1323.112,-210.0,
1323.132,-210.0,
1323.152,-210.0,
1323.172,-210.0,
1323.192,-210.0,
1323.212,-210.0,
1323.232,-70.03,
1323.252,-68.7,
1323.272,-65.26,
1323.292,-68.25,
1323.312,-66.86,
1323.332,-67.12,
1323.352,-72.01,
1323.372,-68.31,
1323.392,-69.66,
1323.412,-66.71,
1323.432,-69.91,
1323.452,-76.59,
1323.472,-78.0,
1323.492,-210.0,
1323.512,-69.39,
1323.532,-73.63,
1323.552,-210.0,
1323.572,-210.0,
1323.592,-210.0,
1323.612,-81.81,
1323.632,-73.75,
1323.652,-210.0,
1323.672,-68.02,
1323.692,-210.0,
1323.712,-71.13,
1323.732,-69.0,
1323.752,-68.19,
1323.772,-69.17,
1323.792,-68.28,
1323.812,-68.9,
1323.832,-210.0,
1323.852,-72.22,
1323.872,-210.0,
1323.892,-210.0,
1323.912,-210.0,
1323.932,-210.0,
1323.952,-210.0,
1323.972,-210.0,
1323.992,-210.0,
1324.012,-210.0,
1324.032,-210.0,
1324.052,-210.0,
1324.072,-210.0,
1324.092,-210.0,
1324.112,-210.0,
1324.132,-210.0,
1324.152,-210.0,
1324.172,-210.0,
1324.192,-210.0,
1324.212,-210.0,
1324.232,-210.0,
1324.252,-210.0,
1324.272,-210.0,
1324.292,-210.0,
1324.312,-210.0,
1324.332,-71.23,
1324.352,-210.0,
1324.372,-66.5,
1324.392,-68.0,
1324.412,-68.06,
1324.432,-66.8,
1324.452,-63.1,
1324.472,-63.76,
1324.492,-67.14,
1324.512,-63.72,
1324.532,-61.93,
1324.552,-62.57,
1324.572,-64.85,
1324.592,-62.39,
1324.612,-61.97,
1324.632,-64.41,
1324.652,-66.71,
1324.672,-62.84,
1324.692,-62.26,
1324.712,-65.0,
1324.732,-66.73,
1324.752,-64.83,
1324.772,-65.98,
1324.792,-66.53,
1324.812,-65.7,
1324.832,-64.84,
1324.852,-66.55,
1324.872,-71.06,
1324.892,-65.56,
1324.912,-65.28,
1324.932,-66.68,
1324.952,-65.22,
1324.972,-67.06,
1324.992,-65.12,
1325.012,-69.53,
1325.032,-66.51,
1325.052,-72.26,
1325.072,-68.52,
1325.092,-70.75,
1325.112,-210.0,
1325.132,-67.11,
1325.152,-70.38,
1325.172,-210.0,
1325.192,-210.0,
1325.212,-90.0,
1325.232,-210.0,
1325.252,-210.0,
1325.272,-210.0,
1325.292,-210.0,
1325.312,-210.0,
1325.332,-210.0,
1325.352,-210.0,
1325.372,-210.0,
1325.392,-210.0,
1325.412,-69.95,
1325.432,-210.0,
1325.452,-210.0,
1325.472,-68.06,
1325.492,-210.0,
1325.512,-210.0,
1325.532,-210.0,
1325.552,-76.06,
1325.572,-210.0,
1325.592,-210.0,
1325.612,-72.88,
1325.632,-70.45,
1325.652,-71.7,
1325.672,-210.0,
1325.692,-210.0,
1325.712,-210.0,
1325.732,-78.87,
1325.752,-68.39,
1325.772,-210.0,
1325.792,-75.83,
1325.812,-210.0,
1325.832,-69.49,
1325.852,-70.51,
1325.872,-73.04,
1325.892,-65.43,
1325.912,-66.81,
1325.932,-68.2,
1325.952,-66.59,
1325.972,-64.48,
1325.992,-65.21,
1326.012,-65.27,
1326.032,-63.37,
1326.052,-62.25,
1326.072,-64.24,
1326.092,-64.15,
1326.112,-63.01,
1326.132,-63.39,
1326.152,-65.63,
1326.172,-66.33,
1326.192,-63.03,
1326.212,-63.14,
1326.232,-72.06,
1326.252,-68.98,
1326.272,-65.9,
1326.292,-67.22,
1326.312,-210.0,
1326.332,-210.0,
1326.352,-68.33,
1326.372,-75.16,
1326.392,-210.0,
1326.412,-210.0,
1326.432,-210.0,
1326.452,-210.0,
1326.472,-210.0,
1326.492,-210.0,
1326.512,-210.0,
1326.532,-210.0,
1326.552,-210.0,
1326.572,-210.0,
1326.592,-210.0,
1326.612,-210.0,
1326.632,-72.99,
1326.652,-69.35,
1326.672,-67.2,
1326.692,-210.0,
1326.712,-67.5,
1326.732,-66.09,
1326.752,-210.0,
1326.772,-210.0,
1326.792,-64.37,
1326.812,-65.06,
1326.832,-210.0,
1326.852,-67.62,
1326.872,-66.77,
1326.892,-68.46,
1326.912,-210.0,
1326.932,-71.55,
1326.952,-69.32,
1326.972,-83.74,
1326.992,-210.0,
1327.012,-210.0,
1327.032,-210.0,
1327.052,-210.0,
1327.072,-210.0,
1327.092,-210.0,
1327.112,-210.0,
1327.132,-210.0,
1327.152,-210.0,
1327.172,-68.1,
1327.192,-210.0,
1327.212,-210.0,
1327.232,-65.28,
1327.252,-64.45,
1327.272,-70.21,
1327.292,-74.27,
1327.312,-62.42,
1327.332,-62.43,
1327.352,-67.18,
1327.372,-77.18,
1327.392,-63.56,
1327.412,-62.39,
1327.432,-70.7,
1327.452,-64.39,
1327.472,-64.2,
1327.492,-66.39,
1327.512,-72.79,
1327.532,-71.08,
1327.552,-66.3,
1327.572,-210.0,
1327.592,-210.0,
1327.612,-210.0,
1327.632,-210.0,
1327.652,-210.0,
1327.672,-210.0,
1327.692,-210.0,
1327.712,-210.0,
1327.732,-210.0,
1327.752,-210.0,
1327.772,-70.31,
1327.792,-210.0,
1327.812,-210.0,
1327.832,-70.91,
1327.852,-66.84,
1327.872,-69.25,
1327.892,-74.95,
1327.912,-64.32,
1327.932,-63.64,
1327.952,-210.0,
1327.972,-73.43,
1327.992,-64.31,
1328.012,-64.68,
1328.032,-210.0,
1328.052,-66.75,
1328.072,-64.97,
1328.092,-70.88,
1328.112,-71.89,
1328.132,-66.95,
1328.152,-66.65,
1328.172,-210.0,
1328.192,-210.0,
1328.212,-210.0,
1328.232,-210.0,
1328.252,-210.0,
1328.272,-210.0,
1328.292,-210.0,
1328.312,-210.0,
1328.332,-210.0,
1328.352,-72.22,
1328.372,-68.03,
1328.392,-210.0,
1328.412,-210.0,
1328.432,-210.0,
1328.452,-70.59,
1328.472,-210.0,
1328.492,-210.0,
1328.512,-65.05,
1328.532,-65.87,
1328.552,-210.0,
1328.572,-65.51,
1328.592,-62.15,
1328.612,-63.45,
1328.632,-68.07,
1328.652,-62.92,
1328.672,-62.77,
1328.692,-66.86,
1328.712,-71.53,
1328.732,-68.55,
1328.752,-65.78,
1328.772,-72.9,
1328.792,-210.0,
1328.812,-83.25,
1328.832,-73.5,
1328.852,-210.0,
1328.872,-210.0,
1328.892,-86.59,
1328.912,-210.0,
1328.932,-210.0,
1328.952,-77.05,
1328.972,-65.89,
1328.992,-76.92,
1329.012,-69.18,
1329.032,-65.26,
1329.052,-65.26,
1329.072,-66.11,
1329.092,-66.38,
1329.112,-63.04,
1329.132,-63.95,
1329.152,-66.58,
1329.172,-64.54,
1329.193,-62.52,
1329.212,-65.28,
1329.232,-67.14,
1329.252,-63.68,
1329.272,-63.14,
1329.292,-67.24,
1329.313,-66.66,
1329.333,-67.78,
1329.352,-66.04,
1329.372,-70.72,
1329.392,-66.16,
1329.412,-64.96,
1329.432,-63.89,
1329.453,-68.7,
1329.473,-68.49,
1329.492,-64.44,
1329.512,-67.61,
1329.532,-66.95,
1329.552,-66.51,
1329.573,-64.4,
1329.593,-69.3,
1329.613,-70.34,
1329.633,-65.82,
1329.652,-64.71,
1329.672,-72.49,
1329.693,-69.02,
1329.713,-63.31,
1329.733,-64.58,
1329.753,-68.01,
1329.773,-65.9,
1329.792,-63.27,
1329.813,-64.43,
1329.833,-67.56,
1329.853,-64.4,
1329.873,-62.5,
1329.893,-64.21,
1329.913,-64.69,
1329.932,-62.25,
1329.953,-62.49,
1329.973,-66.62,
1329.993,-67.49,
1330.013,-63.61,
1330.033,-63.26,
1330.053,-78.15,
1330.073,-68.58,
1330.093,-65.82,
1330.113,-210.0,
1330.133,-210.0,
1330.153,-210.0,
1330.173,-69.8,
1330.193,-76.7,
1330.213,-210.0,
1330.233,-66.22,
1330.253,-66.61,
1330.273,-77.02,
1330.293,-66.94,
1330.313,-63.25,
1330.333,-65.64,
1330.353,-67.39,
1330.373,-65.11,
1330.393,-62.63,
1330.413,-64.62,
1330.433,-72.0,
1330.453,-62.86,
1330.473,-63.44,
1330.493,-76.62,
1330.513,-79.58,
1330.533,-65.07,
1330.553,-66.43,
1330.573,-210.0,
1330.593,-78.8,
1330.613,-64.7,
1330.633,-210.0,
1330.653,-210.0,
1330.673,-86.25,
1330.693,-68.02,
1330.713,-74.04,
1330.733,-210.0,
1330.753,-65.64,
1330.773,-66.34,
1330.793,-71.67,
1330.813,-69.2,
1330.833,-62.77,
1330.853,-63.58,
1330.873,-68.3,
1330.893,-64.59,
1330.913,-63.22,
1330.933,-66.12,
1330.953,-68.95,
1330.973,-63.05,
1330.993,-63.46,
1331.013,-210.0,
1331.033,-69.42,
1331.053,-63.85,
1331.073,-64.25,
1331.093,-70.59,
1331.113,-66.85,
1331.133,-62.77,
1331.153,-63.07,
1331.173,-69.31,
1331.193,-66.34,
1331.213,-63.86,
1331.233,-71.09,
1331.253,-210.0,
1331.273,-210.0,
1331.293,-69.22,
1331.313,-210.0,
1331.333,-210.0,
1331.353,-68.2,
1331.373,-68.02,
1331.393,-210.0,
1331.413,-71.61,
1331.433,-67.15,
1331.453,-76.3,
1331.473,-67.95,
1331.493,-66.87,
1331.513,-64.77,
1331.533,-64.98,
1331.553,-70.71,
1331.573,-65.86,
1331.593,-65.13,
1331.613,-70.09,
1331.633,-70.94,
1331.653,-65.98,
1331.673,-65.87,
1331.693,-69.2,
1331.713,-66.3,
1331.733,-65.13,
1331.753,-65.75,
1331.773,-69.65,
1331.793,-65.83,
1331.813,-64.87,
1331.833,-67.58,
1331.853,-77.82,
1331.873,-67.01,
1331.893,-66.61,
1331.913,-210.0,
1331.933,-210.0,
1331.953,-68.83,
1331.973,-74.75,
1331.993,-210.0,
1332.013,-210.0,
1332.033,-72.21,
1332.053,-210.0,
1332.073,-210.0,
1332.093,-210.0,
1332.113,-74.44,
1332.133,-210.0,
1332.153,-210.0,
1332.173,-71.08,
1332.193,-210.0,
1332.213,-210.0,
1332.233,-78.21,
1332.253,-64.25,
1332.273,-66.69,
1332.293,-210.0,
1332.313,-65.91,
1332.333,-63.66,
1332.353,-76.2,
1332.373,-210.0,
1332.393,-65.81,
1332.413,-71.91,
1332.433,-210.0,
1332.453,-210.0,
1332.473,-210.0,
1332.493,-210.0,
1332.513,-210.0,
1332.533,-210.0,
1332.553,-210.0,
1332.573,-210.0,
1332.593,-210.0,
1332.613,-210.0,
1332.633,-210.0,
1332.653,-210.0,
1332.673,-210.0,
1332.693,-67.74,
1332.713,-70.39,
1332.733,-210.0,
1332.753,-210.0,
1332.773,-87.46,
1332.793,-210.0,
1332.813,-210.0,
1332.833,-210.0,
1332.853,-210.0,
1332.873,-210.0,
1332.893,-210.0,
1332.913,-210.0,
1332.933,-210.0,
1332.953,-210.0,
1332.973,-210.0,
1332.993,-210.0,
1333.013,-210.0,
1333.033,-210.0,
1333.053,-210.0,
1333.073,-75.29,
1333.093,-210.0,
1333.113,-210.0,
1333.133,-85.18,
1333.153,-210.0,
1333.173,-210.0,
1333.193,-210.0,
1333.213,-210.0,
1333.233,-210.0,
1333.253,-210.0,
1333.273,-210.0,
1333.293,-210.0,
1333.313,-210.0,
1333.333,-210.0,
1333.353,-210.0,
1333.373,-210.0,
1333.393,-210.0,
1333.413,-210.0,
1333.433,-210.0,
1333.453,-210.0,
1333.473,-210.0,
1333.493,-210.0,
1333.513,-77.08,
1333.533,-210.0,
1333.553,-210.0,
1333.573,-69.69,
1333.593,-68.33,
1333.613,-210.0,
1333.633,-210.0,
1333.653,-210.0,
1333.673,-210.0,
1333.693,-210.0,
1333.713,-210.0,
1333.733,-210.0,
1333.753,-210.0,
1333.773,-210.0,
1333.793,-69.63,
1333.813,-210.0,
1333.833,-210.0,
1333.853,-210.0,
1333.873,-64.73,
1333.893,-210.0,
1333.913,-210.0,
1333.933,-67.56,
1333.953,-65.07,
1333.973,-78.48,
1333.993,-210.0,
1334.013,-66.2,
1334.033,-69.32,
1334.053,-210.0,
1334.073,-210.0,
1334.093,-66.82,
1334.113,-78.48,
1334.133,-210.0,
1334.153,-65.64,
1334.173,-65.88,
1334.193,-210.0,
1334.213,-210.0,
1334.233,-64.29,
1334.253,-68.07,
1334.273,-210.0,
1334.293,-67.09,
1334.313,-64.61,
1334.333,-210.0,
1334.353,-210.0,
1334.373,-65.39,
1334.393,-68.22,
1334.413,-210.0,
1334.433,-210.0,
1334.453,-65.75,
1334.473,-70.47,
1334.493,-210.0,
1334.513,-71.03,
1334.533,-79.08,
1334.553,-210.0,
1334.573,-210.0,
1334.593,-210.0,
1334.613,-210.0,
1334.633,-210.0,
1334.653,-210.0,
1334.673,-73.41,
1334.693,-210.0,
1334.713,-210.0,
1334.733,-72.39,
1334.753,-75.47,
1334.773,-210.0,
1334.793,-210.0,
1334.813,-70.45,
1334.833,-210.0,
1334.853,-210.0,
1334.873,-210.0,
1334.893,-210.0,
1334.913,-210.0,
1334.933,-210.0,
1334.953,-210.0,
1334.973,-210.0,
1334.993,-210.0,
1335.013,-210.0,
1335.033,-68.81,
1335.053,-210.0,
1335.073,-210.0,
1335.093,-70.66,
1335.113,-67.32,
1335.133,-210.0,
1335.153,-210.0,
1335.173,-67.61,
1335.193,-210.0,
1335.213,-210.0,
1335.233,-210.0,
1335.253,-75.52,
1335.273,-210.0,
1335.293,-210.0,
1335.313,-75.48,
1335.333,-67.31,
1335.353,-210.0,
1335.373,-76.07,
1335.393,-64.14,
1335.413,-67.26,
1335.433,-80.17,
1335.453,-66.32,
1335.473,-66.77,
1335.493,-210.0,
1335.513,-210.0,
1335.533,-65.51,
1335.553,-64.96,
1335.573,-210.0,
1335.593,-67.87,
1335.613,-64.55,
1335.633,-70.71,
1335.653,-69.0,
1335.673,-64.51,
1335.693,-64.89,
1335.713,-210.0,
1335.733,-69.82,
1335.753,-65.18,
1335.773,-210.0,
1335.793,-210.0,
1335.813,-73.07,
1335.833,-68.81,
1335.853,-210.0,
1335.873,-210.0,
1335.893,-70.56,
1335.913,-71.38,
1335.933,-210.0,
1335.953,-210.0,
1335.973,-66.09,
1335.993,-70.42,
1336.013,-210.0,
1336.033,-68.2,
1336.053,-65.86,
1336.073,-210.0,
1336.093,-210.0,
1336.113,-67.7,
1336.133,-75.71,
1336.153,-210.0,
1336.173,-210.0,
1336.193,-210.0,
1336.213,-210.0,
1336.233,-210.0,
1336.253,-80.86,
1336.273,-68.38,
1336.293,-210.0,
1336.313,-210.0,
1336.333,-65.74,
1336.353,-210.0,
1336.373,-210.0,
1336.393,-210.0,
1336.413,-78.95,
1336.433,-210.0,
1336.453,-210.0,
1336.473,-210.0,
1336.493,-210.0,
1336.513,-210.0,
1336.533,-210.0,
1336.553,-70.94,
1336.573,-210.0,
1336.593,-210.0,
1336.613,-71.1,
1336.633,-69.6,
1336.653,-210.0,
1336.673,-210.0,
1336.693,-67.39,
1336.713,-210.0,
1336.733,-210.0,
1336.753,-210.0,
1336.773,-70.54,
1336.793,-210.0,
1336.813,-210.0,
1336.833,-76.2,
1336.853,-70.9,
1336.873,-210.0,
1336.893,-210.0,
1336.913,-64.35,
1336.933,-68.52,
1336.953,-210.0,
1336.973,-69.19,
1336.993,-66.01,
1337.013,-210.0,
1337.033,-210.0,
1337.053,-68.04,
1337.073,-79.62,
1337.093,-210.0,
1337.113,-210.0,
1337.133,-71.63,
1337.153,-210.0,
1337.173,-210.0,
1337.193,-210.0,
1337.214,-66.42,
1337.233,-210.0,
1337.253,-210.0,
1337.273,-71.56,
1337.293,-210.0,
1337.313,-210.0,
1337.333,-210.0,
1337.354,-210.0,
1337.374,-210.0,
1337.393,-210.0,
1337.413,-210.0,
1337.433,-210.0,
1337.453,-210.0,
1337.474,-210.0,
1337.494,-69.03,
1337.514,-210.0,
1337.533,-210.0,
1337.553,-210.0,
1337.573,-78.0,
1337.594,-210.0,
1337.614,-210.0,
1337.634,-78.83,
1337.654,-210.0,
1337.673,-210.0,
1337.693,-210.0,
1337.714,-210.0,
1337.734,-210.0,
1337.754,-210.0,
1337.774,-210.0,
1337.794,-210.0,
1337.813,-210.0,
1337.833,-210.0,
1337.854,-210.0,
1337.874,-210.0,
1337.894,-210.0,
1337.914,-210.0,
1337.934,-210.0,
1337.953,-210.0,
1337.974,-210.0,
1337.994,-210.0,
1338.014,-210.0,
1338.034,-210.0,
1338.054,-210.0,
1338.074,-210.0,
1338.094,-210.0,
1338.114,-210.0,
1338.134,-210.0,
1338.154,-210.0,
1338.174,-210.0,
1338.194,-210.0,
1338.214,-210.0,
1338.234,-210.0,
1338.254,-210.0,
1338.274,-210.0,
1338.294,-210.0,
1338.314,-210.0,
1338.334,-210.0,
1338.354,-210.0,
1338.374,-210.0,
1338.394,-210.0,
1338.414,-210.0,
1338.434,-65.93,
1338.454,-71.17,
1338.474,-210.0,
1338.494,-67.51,
1338.514,-66.08,
1338.534,-210.0,
1338.554,-210.0,
1338.574,-69.51,
1338.594,-77.33,
1338.614,-210.0,
1338.634,-210.0,
1338.654,-210.0,
1338.674,-210.0,
1338.694,-210.0,
1338.714,-72.25,
1338.734,-67.43,
1338.754,-210.0,
1338.774,-71.48,
1338.794,-63.61,
1338.814,-68.92,
1338.834,-73.39,
1338.854,-65.75,
1338.874,-69.64,
1338.894,-210.0,
1338.914,-210.0,
1338.934,-71.19,
1338.954,-210.0,
1338.974,-210.0,
1338.994,-67.63,
1339.014,-64.72,
1339.034,-68.34,
1339.054,-67.82,
1339.074,-64.88,
1339.094,-63.89,
1339.114,-68.77,
1339.134,-67.24,
1339.154,-64.71,
1339.174,-70.58,
1339.194,-67.72,
1339.214,-65.28,
1339.234,-62.99,
1339.254,-63.6,
1339.274,-63.75,
1339.294,-62.39,
1339.314,-63.2,
1339.334,-63.78,
1339.354,-63.33,
1339.374,-62.64,
1339.394,-65.06,
1339.414,-63.74,
1339.434,-63.56,
1339.454,-64.13,
1339.474,-63.77,
1339.494,-66.21,
1339.514,-62.77,
1339.534,-63.7,
1339.554,-64.35,
1339.574,-62.64,
1339.594,-63.25,
1339.614,-64.6,
1339.634,-65.47,
1339.654,-62.63,
1339.674,-63.75,
1339.694,-63.29,
1339.714,-63.49,
1339.734,-61.8,
1339.754,-63.9,
1339.774,-65.26,
1339.794,-63.09,
1339.814,-64.51,
1339.834,-65.48,
1339.854,-64.79,
1339.874,-62.88,
1339.894,-67.03,
1339.914,-63.81,
1339.934,-62.26,
1339.954,-63.12,
1339.974,-63.82,
1339.994,-64.78,
1340.014,-62.13,
1340.034,-62.97,
1340.054,-63.94,
1340.074,-63.16,
1340.094,-63.91,
1340.114,-65.62,
1340.134,-64.46,
1340.154,-62.47,
1340.174,-65.64,
1340.194,-64.03,
1340.214,-63.96,
1340.234,-63.9,
1340.254,-65.29,
1340.274,-67.53,
1340.294,-62.59,
1340.314,-63.5,
1340.334,-65.3,
1340.354,-63.85,
1340.374,-62.6,
1340.394,-65.24,
1340.414,-63.96,
1340.434,-63.26,
1340.454,-64.82,
1340.474,-63.38,
1340.494,-64.41,
1340.514,-62.97,
1340.534,-64.22,
1340.554,-65.95,
1340.574,-63.98,
1340.594,-64.42,
1340.614,-63.96,
1340.634,-62.8,
1340.654,-62.7,
1340.674,-65.41,
1340.694,-63.32,
1340.714,-64.19,
1340.734,-65.58,
1340.754,-63.72,
1340.774,-66.03,
1340.794,-64.14,
1340.814,-65.68,
1340.834,-66.55,
1340.854,-65.9,
1340.874,-64.98,
1340.894,-65.83,
1340.914,-65.99,
1340.934,-64.18,
1340.954,-67.13,
1340.974,-67.59,
1340.994,-68.34,
1341.014,-69.11,
1341.034,-71.82,
1341.054,-72.34,
1341.074,-66.65,
1341.094,-65.04,
1341.114,-64.44,
1341.134,-65.18,
1341.154,-65.15,
1341.174,-66.22,
1341.194,-66.51,
1341.214,-66.97,
1341.234,-70.02,
1341.254,-68.5,
1341.274,-210.0,
1341.294,-210.0,
1341.314,-74.87,
1341.334,-72.92,
1341.354,-74.05,
1341.374,-85.26,
1341.394,-210.0,
1341.414,-80.79,
1341.434,-77.4,
1341.454,-210.0,
1341.474,-210.0,
1341.494,-210.0,
1341.514,-210.0,
1341.534,-73.95,
1341.554,-210.0,
1341.574,-72.39,
1341.594,-71.79,
1341.614,-73.56,
1341.634,-210.0,
1341.654,-210.0,
1341.674,-210.0,
1341.694,-210.0,
1341.714,-83.77,
1341.734,-210.0,
1341.754,-210.0,
1341.774,-210.0,
1341.794,-210.0,
1341.814,-70.8,
1341.834,-71.37,
1341.854,-76.51,
1341.874,-82.25,
1341.894,-71.63,
1341.914,-210.0,
1341.934,-210.0,
1341.954,-210.0,
1341.974,-210.0,
1341.994,-78.63,
1342.014,-79.37,
1342.034,-67.58,
1342.054,-72.02,
1342.074,-67.79,
1342.094,-73.72,
1342.114,-210.0,
1342.134,-72.94,
1342.154,-210.0,
1342.174,-210.0,
1342.194,-210.0,
1342.214,-210.0,
1342.234,-210.0,
1342.254,-210.0,
1342.274,-75.07,
1342.294,-75.11,
1342.314,-70.36,
1342.334,-210.0,
1342.354,-210.0,
1342.374,-210.0,
1342.394,-210.0,
1342.414,-210.0,
1342.434,-75.35,
1342.454,-210.0,
1342.474,-210.0,
1342.494,-210.0,
1342.514,-210.0,
1342.534,-210.0,
1342.554,-210.0,
1342.574,-210.0,
1342.594,-210.0,
1342.614,-210.0,
1342.634,-210.0,
1342.654,-210.0,
1342.674,-210.0,
1342.694,-210.0,
1342.714,-210.0,
1342.734,-73.35,
1342.754,-210.0,
1342.774,-210.0,
1342.794,-210.0,
1342.814,-210.0,
1342.834,-210.0,
1342.854,-210.0,
1342.874,-210.0,
1342.894,-210.0,
1342.914,-210.0,
1342.934,-210.0,
1342.954,-210.0,
1342.974,-210.0,
1342.994,-210.0,
1343.014,-77.89,
1343.034,-210.0,
1343.054,-210.0,
1343.074,-210.0,
1343.094,-210.0,
1343.114,-210.0,
1343.134,-210.0,
1343.154,-70.71,
1343.174,-210.0,
1343.194,-210.0,
1343.214,-66.17,
1343.234,-65.07,
1343.254,-210.0,
1343.274,-210.0,
1343.294,-69.14,
1343.314,-210.0,
1343.334,-210.0,
1343.354,-210.0,
1343.374,-210.0,
1343.394,-210.0,
1343.414,-210.0,
1343.434,-69.76,
1343.454,-67.47,
1343.474,-210.0,
1343.494,-210.0,
1343.514,-66.99,
1343.534,-210.0,
1343.554,-210.0,
1343.574,-68.38,
1343.594,-73.12,
1343.614,-71.16,
1343.634,-68.17,
1343.654,-67.15,
1343.674,-68.32,
1343.694,-68.48,
1343.714,-68.6,
1343.734,-71.51,
1343.754,-210.0,
1343.774,-210.0,
1343.794,-210.0,
1343.814,-210.0,
1343.834,-210.0,
1343.854,-67.28,
1343.874,-69.7,
1343.894,-210.0,
1343.914,-67.24,
1343.934,-68.32,
1343.954,-69.43,
1343.974,-76.59,
1343.994,-67.95,
1344.014,-210.0,
1344.034,-68.42,
1344.054,-67.59,
1344.074,-65.99,
1344.094,-66.15,
1344.114,-65.8,
1344.134,-66.91,
1344.154,-66.19,
1344.174,-69.53,
1344.194,-75.17,
1344.214,-74.9,
1344.234,-72.97,
1344.254,-69.5,
1344.274,-69.19,
1344.294,-67.19,
1344.314,-210.0,
1344.334,-65.67,
1344.354,-65.29,
1344.374,-65.1,
1344.394,-67.82,
1344.414,-63.23,
1344.434,-67.11,
1344.454,-69.75,
1344.474,-63.32,
1344.494,-64.21,
1344.514,-64.24,
1344.534,-65.76,
1344.554,-63.11,
1344.574,-65.47,
1344.594,-210.0,
1344.614,-69.13,
1344.634,-65.52,
1344.654,-210.0,
1344.674,-76.34,
1344.694,-65.18,
1344.714,-68.37,
1344.734,-210.0,
1344.754,-65.92,
1344.774,-65.42,
1344.794,-68.11,
1344.814,-69.36,
1344.834,-65.61,
1344.854,-73.99,
1344.874,-70.3,
1344.894,-65.7,
1344.914,-64.61,
1344.934,-66.2,
1344.954,-65.9,
1344.974,-64.42,
1344.994,-65.54,
1345.014,-68.1,
1345.034,-68.52,
1345.054,-66.29,
1345.074,-210.0,
1345.094,-210.0,
1345.115,-67.8,
1345.134,-68.91,
1345.154,-210.0,
1345.174,-66.58,
1345.194,-68.12,
1345.214,-73.69,
1345.234,-82.62,
1345.255,-66.69,
1345.274,-210.0,
1345.294,-73.1,
1345.314,-66.63,
1345.334,-67.65,
1345.354,-75.23,
1345.375,-68.56,
1345.395,-69.07,
1345.414,-210.0,
1345.434,-210.0,
1345.454,-210.0,
1345.474,-210.0,
1345.495,-210.0,
1345.515,-210.0,
1345.535,-78.22,
1345.554,-210.0,
1345.574,-210.0,
1345.594,-79.09,
1345.615,-70.96,
1345.635,-210.0,
1345.655,-210.0,
1345.675,-210.0,
1345.694,-210.0,
1345.714,-210.0,
1345.734,-99.88,
1345.755,-70.54,
1345.775,-210.0,
1345.795,-210.0,
1345.815,-210.0,
1345.835,-210.0,
1345.854,-210.0,
1345.875,-210.0,
1345.895,-210.0,
1345.915,-210.0,
1345.935,-210.0,
1345.955,-210.0,
1345.975,-210.0,
1345.995,-210.0,
1346.015,-210.0,
1346.035,-210.0,
1346.055,-210.0,
1346.075,-210.0,
1346.095,-76.41,
1346.115,-210.0,
1346.135,-210.0,
1346.155,-210.0,
1346.175,-210.0,
1346.195,-210.0,
1346.215,-210.0,
1346.235,-210.0,
1346.255,-210.0,
1346.275,-210.0,
1346.295,-210.0,
1346.315,-210.0,
1346.335,-210.0,
1346.355,-210.0,
1346.375,-210.0,
1346.395,-210.0,
1346.415,-210.0,
1346.435,-210.0,
1346.455,-210.0,
1346.475,-210.0,
1346.495,-210.0,
1346.515,-210.0,
1346.535,-210.0,
1346.555,-210.0,
1346.575,-210.0,
1346.595,-210.0,
1346.615,-210.0,
1346.635,-210.0,
1346.655,-210.0,
1346.675,-210.0,
1346.695,-210.0,
1346.715,-210.0,
1346.735,-210.0,
1346.755,-210.0,
1346.775,-210.0,
1346.795,-210.0,
1346.815,-210.0,
1346.835,-210.0,
1346.855,-72.33,
1346.875,-210.0,
1346.895,-210.0,
1346.915,-72.35,
1346.935,-210.0,
1346.955,-210.0,
1346.975,-210.0,
1346.995,-210.0,
1347.015,-210.0,
1347.035,-210.0,
1347.055,-210.0,
1347.075,-210.0,
1347.095,-210.0,
1347.115,-210.0,
1347.135,-210.0,
1347.155,-210.0,
1347.175,-210.0,
1347.195,-210.0,
1347.215,-210.0,
1347.235,-210.0,
1347.255,-210.0,
1347.275,-210.0,
1347.295,-210.0,
1347.315,-210.0,
1347.335,-210.0,
1347.355,-210.0,
1347.375,-210.0,
1347.395,-210.0,
1347.415,-210.0,
1347.435,-210.0,
1347.455,-210.0,
1347.475,-210.0,
1347.495,-210.0,
1347.515,-210.0,
1347.535,-72.25,
1347.555,-73.94,
1347.575,-210.0,
1347.595,-210.0,
1347.615,-95.86,
1347.635,-210.0,
1347.655,-210.0,
1347.675,-80.04,
1347.695,-210.0,
1347.715,-210.0,
1347.735,-210.0,
1347.755,-210.0,
1347.775,-210.0,
1347.795,-210.0,
1347.815,-210.0,
1347.835,-210.0,
1347.855,-210.0,
1347.875,-210.0,
1347.895,-210.0,
1347.915,-210.0,
1347.935,-210.0,
1347.955,-210.0,
1347.975,-210.0,
1347.995,-210.0,
1348.015,-210.0,
1348.035,-210.0,
1348.055,-210.0,
1348.075,-210.0,
1348.095,-210.0,
1348.115,-210.0,
1348.135,-210.0,
1348.155,-210.0,
1348.175,-210.0,
1348.195,-210.0,
1348.215,-210.0,
1348.235,-210.0,
1348.255,-210.0,
1348.275,-210.0,
1348.295,-210.0,
1348.315,-210.0,
1348.335,-210.0,
1348.355,-210.0,
1348.375,-210.0,
1348.395,-210.0,
1348.415,-210.0,
1348.435,-210.0,
1348.455,-210.0,
1348.475,-210.0,
1348.495,-210.0,
1348.515,-210.0,
1348.535,-210.0,
1348.555,-210.0,
1348.575,-210.0,
1348.595,-210.0,
1348.615,-210.0,
1348.635,-210.0,
1348.655,-210.0,
1348.675,-210.0,
1348.695,-210.0,
1348.715,-210.0,
1348.735,-210.0,
1348.755,-210.0,
1348.775,-210.0,
1348.795,-210.0,
1348.815,-210.0,
1348.835,-210.0,
1348.855,-210.0,
1348.875,-210.0,
1348.895,-210.0,
1348.915,-210.0,
1348.935,-210.0,
1348.955,-210.0,
1348.975,-210.0,
1348.995,-210.0,
1349.015,-210.0,
1349.035,-210.0,
1349.055,-69.69,
1349.075,-210.0,
1349.095,-210.0,
1349.115,-71.85,
1349.135,-210.0,
1349.155,-210.0,
1349.175,-210.0,
1349.195,-71.08,
1349.215,-210.0,
1349.235,-210.0,
1349.255,-66.81,
1349.275,-210.0,
1349.295,-210.0,
1349.315,-73.49,
1349.335,-210.0,
1349.355,-210.0,
1349.375,-70.66,
1349.395,-70.29,
1349.415,-210.0,
1349.435,-210.0,
1349.455,-210.0,
1349.475,-210.0,
1349.495,-210.0,
1349.515,-210.0,
1349.535,-73.91,
1349.555,-210.0,
1349.575,-210.0,
1349.595,-67.39,
1349.615,-210.0,
1349.635,-210.0,
1349.655,-69.82,
1349.675,-210.0,
1349.695,-210.0,
1349.715,-74.92,
1349.735,-66.19,
1349.755,-210.0,
1349.775,-210.0,
1349.795,-68.59,
1349.815,-71.37,
1349.835,-210.0,
1349.855,-71.82,
1349.875,-72.03,
1349.895,-210.0,
1349.915,-210.0,
1349.935,-64.88,
1349.955,-70.58,
1349.975,-210.0,
1349.995,-66.7,
1350.015,-65.71,
1350.035,-210.0,
1350.055,-210.0,
1350.075,-65.67,
1350.095,-210.0,
1350.115,-210.0,
1350.135,-68.24,
1350.155,-76.67,
1350.175,-210.0,
1350.195,-72.13,
1350.215,-65.77,
1350.235,-210.0,
1350.255,-210.0,
1350.275,-66.81,
1350.295,-69.12,
1350.315,-210.0,
1350.335,-66.18,
1350.355,-66.65,
1350.375,-210.0,
1350.395,-210.0,
1350.415,-68.09,
1350.435,-210.0,
1350.455,-210.0,
1350.475,-66.38,
1350.495,-65.84,
1350.515,-210.0,
1350.535,-210.0,
1350.555,-70.75,
1350.575,-210.0,
1350.595,-210.0,
1350.615,-69.24,
1350.635,-210.0,
1350.655,-210.0,
1350.675,-210.0,
1350.695,-210.0,
1350.715,-210.0,
1350.735,-210.0,
1350.755,-67.44,
1350.775,-210.0,
1350.795,-210.0,
1350.815,-210.0,
1350.835,-210.0,
1350.855,-210.0,
1350.875,-210.0,
1350.895,-72.38,
1350.915,-210.0,
1350.935,-210.0,
1350.955,-210.0,
1350.975,-210.0,
1350.995,-210.0,
1351.015,-210.0,
1351.035,-210.0,
1351.055,-210.0,
1351.075,-210.0,
1351.095,-73.98,
1351.115,-210.0,
1351.135,-210.0,
1351.155,-210.0,
1351.175,-210.0,
1351.195,-210.0,
1351.215,-210.0,
1351.235,-210.0,
1351.255,-210.0,
1351.275,-210.0,
1351.295,-210.0,
1351.315,-210.0,
1351.335,-210.0,
1351.355,-210.0,
1351.375,-210.0,
1351.395,-210.0,
1351.415,-210.0,
1351.435,-78.21,
1351.455,-210.0,
1351.475,-210.0,
1351.495,-210.0,
1351.515,-210.0,
1351.535,-210.0,
1351.555,-210.0,
1351.575,-77.3,
1351.595,-210.0,
1351.615,-210.0,
1351.635,-68.43,
1351.655,-210.0,
1351.675,-210.0,
1351.695,-210.0,
1351.715,-75.25,
1351.735,-210.0,
1351.755,-210.0,
1351.775,-65.98,
1351.795,-210.0,
1351.815,-210.0,
1351.835,-210.0,
1351.855,-77.63,
1351.875,-210.0,
1351.895,-210.0,
1351.915,-84.45,
1351.935,-210.0,
1351.955,-210.0,
1351.975,-67.01,
1351.995,-210.0,
1352.015,-210.0,
1352.035,-69.09,
1352.055,-74.0,
1352.075,-210.0,
1352.095,-210.0,
1352.115,-72.77,
1352.135,-210.0,
1352.155,-210.0,
1352.175,-67.93,
1352.195,-210.0,
1352.215,-210.0,
1352.235,-210.0,
1352.255,-210.0,
1352.275,-210.0,
1352.295,-210.0,
1352.315,-68.21,
1352.335,-210.0,
1352.355,-210.0,
1352.375,-210.0,
1352.395,-210.0,
1352.415,-210.0,
1352.435,-210.0,
1352.455,-71.09,
1352.475,-210.0,
1352.495,-210.0,
1352.515,-75.89,
1352.535,-210.0,
1352.555,-210.0,
1352.575,-210.0,
1352.595,-210.0,
1352.615,-210.0,
1352.635,-210.0,
1352.655,-210.0,
1352.675,-210.0,
1352.695,-210.0,
1352.715,-210.0,
1352.735,-210.0,
1352.755,-210.0,
1352.775,-74.69,
1352.795,-72.62,
1352.815,-210.0,
1352.835,-210.0,
1352.855,-75.59,
1352.875,-210.0,
1352.895,-210.0,
1352.915,-72.9,
1352.935,-210.0,
1352.955,-210.0,
1352.975,-70.95,
1352.995,-210.0,
1353.015,-210.0,
1353.035,-210.0,
1353.055,-77.27,
1353.075,-210.0,
1353.095,-210.0,
1353.115,-65.59,
1353.135,-71.62,
1353.155,-210.0,
1353.175,-71.68,
1353.195,-66.54,
1353.215,-210.0,
1353.235,-71.57,
1353.255,-64.01,
1353.276,-78.58,
1353.295,-210.0,
1353.315,-66.79,
1353.335,-210.0,
1353.355,-210.0,
1353.375,-68.15,
1353.396,-68.57,
1353.416,-210.0,
1353.435,-210.0,
1353.455,-210.0,
1353.475,-210.0,
1353.495,-210.0,
1353.516,-75.77,
1353.536,-210.0,
1353.556,-210.0,
1353.576,-210.0,
1353.595,-210.0,
1353.615,-210.0,
1353.635,-210.0,
1353.656,-73.08,
1353.676,-210.0,
1353.696,-210.0,
1353.716,-72.35,
1353.735,-210.0,
1353.755,-210.0,
1353.776,-210.0,
1353.796,-210.0,
1353.816,-210.0,
1353.836,-210.0,
1353.856,-75.24,
1353.875,-210.0,
1353.896,-210.0,
1353.916,-210.0,
1353.936,-210.0,
1353.956,-210.0,
1353.976,-210.0,
1353.996,-68.56,
1354.016,-210.0,
1354.036,-210.0,
1354.056,-210.0,
1354.076,-210.0,
1354.096,-210.0,
1354.116,-210.0,
1354.136,-210.0,
1354.156,-210.0,
1354.176,-210.0,
1354.196,-210.0,
1354.216,-210.0,
1354.236,-210.0,
1354.256,-210.0,
1354.276,-210.0,
1354.296,-210.0,
1354.316,-210.0,
1354.336,-80.6,
1354.356,-210.0,
1354.376,-210.0,
1354.396,-69.03,
1354.416,-210.0,
1354.436,-210.0,
1354.456,-66.83,
1354.476,-70.8,
1354.496,-210.0,
1354.516,-68.01,
1354.536,-71.91,
1354.556,-210.0,
1354.576,-75.2,
1354.596,-73.79,
1354.616,-210.0,
1354.636,-210.0,
1354.656,-74.85,
1354.676,-210.0,
1354.696,-210.0,
1354.716,-210.0,
1354.736,-210.0,
1354.756,-210.0,
1354.776,-210.0,
1354.796,-71.92,
1354.816,-210.0,
1354.836,-210.0,
1354.856,-70.68,
1354.876,-210.0,
1354.896,-210.0,
1354.916,-210.0,
1354.936,-69.93,
1354.956,-69.71,
1354.976,-210.0,
1354.996,-67.49,
1355.016,-78.06,
1355.036,-84.01,
1355.056,-66.66,
1355.076,-74.31,
1355.096,-72.8,
1355.116,-70.23,
1355.136,-67.92,
1355.156,-71.04,
1355.176,-67.37,
1355.196,-65.82,
1355.216,-71.71,
1355.236,-70.65,
1355.256,-65.16,
1355.276,-68.27,
1355.296,-69.69,
1355.316,-65.58,
1355.336,-66.08,
1355.356,-76.62,
1355.376,-71.29,
1355.396,-67.34,
1355.416,-67.86,
1355.436,-77.31,
1355.456,-84.36,
1355.476,-73.86,
1355.496,-210.0,
1355.516,-76.27,
1355.536,-69.66,
1355.556,-73.32,
1355.576,-68.16,
1355.596,-70.99,
1355.616,-72.53,
1355.636,-73.37,
1355.656,-66.1,
1355.676,-69.33,
1355.696,-210.0,
1355.716,-70.68,
1355.736,-74.66,
1355.756,-210.0,
1355.776,-86.36,
1355.796,-67.89,
1355.816,-210.0,
1355.836,-210.0,
1355.856,-67.62,
1355.876,-210.0,
1355.896,-210.0,
1355.916,-71.24,
1355.936,-210.0,
1355.956,-210.0,
1355.976,-210.0,
1355.996,-73.48,
1356.016,-210.0,
1356.036,-210.0,
1356.056,-72.44,
1356.076,-210.0,
1356.096,-210.0,
1356.116,-210.0,
1356.136,-210.0,
1356.156,-210.0,
1356.176,-210.0,
1356.196,-210.0,
1356.216,-210.0,
1356.236,-210.0,
1356.256,-210.0,
1356.276,-210.0,
1356.296,-210.0,
1356.316,-210.0,
1356.336,-210.0,
1356.356,-210.0,
1356.376,-210.0,
1356.396,-210.0,
1356.416,-210.0,
1356.436,-210.0,
1356.456,-210.0,
1356.476,-210.0,
1356.496,-210.0,
1356.516,-210.0,
1356.536,-210.0,
1356.556,-210.0,
1356.576,-210.0,
1356.596,-210.0,
1356.616,-210.0,
1356.636,-210.0,
1356.656,-210.0,
1356.676,-210.0,
1356.696,-210.0,
1356.716,-210.0,
1356.736,-210.0,
1356.756,-210.0,
1356.776,-210.0,
1356.796,-210.0,
1356.816,-210.0,
1356.836,-210.0,
1356.856,-210.0,
1356.876,-210.0,
1356.896,-210.0,
1356.916,-210.0,
1356.936,-210.0,
1356.956,-210.0,
1356.976,-210.0,
1356.996,-210.0,
1357.016,-210.0,
1357.036,-210.0,
1357.056,-75.65,
1357.076,-210.0,
1357.096,-210.0,
1357.116,-210.0,
1357.136,-210.0,
1357.156,-210.0,
1357.176,-71.33,
1357.196,-67.18,
1357.216,-210.0,
1357.236,-210.0,
1357.256,-72.23,
1357.276,-210.0,
1357.296,-210.0,
1357.316,-210.0,
1357.336,-210.0,
1357.356,-210.0,
1357.376,-210.0,
1357.396,-210.0,
1357.416,-210.0,
1357.436,-210.0,
1357.456,-210.0,
1357.476,-210.0,
1357.496,-210.0,
1357.516,-72.03,
1357.536,-210.0,
1357.556,-210.0,
1357.576,-71.72,
1357.596,-210.0,
1357.616,-210.0,
1357.636,-210.0,
1357.656,-72.82,
1357.676,-210.0,
1357.696,-210.0,
1357.716,-210.0,
1357.736,-210.0,
1357.756,-210.0,
1357.776,-210.0,
1357.796,-210.0,
1357.816,-210.0,
1357.836,-78.96,
1357.856,-210.0,
1357.876,-210.0,
1357.896,-210.0,
1357.916,-69.4,
1357.936,-74.7,
1357.956,-70.69,
1357.976,-210.0,
1357.996,-210.0,
1358.016,-210.0,
1358.036,-210.0,
1358.056,-210.0,
1358.076,-210.0,
1358.096,-210.0,
1358.116,-210.0,
1358.136,-210.0,
1358.156,-210.0,
1358.176,-210.0,
1358.196,-210.0,
1358.216,-75.19,
1358.236,-69.71,
1358.256,-210.0,
1358.276,-210.0,
1358.296,-210.0,
1358.316,-68.75,
1358.336,-66.14,
1358.356,-64.71,
1358.376,-66.39,
1358.396,-71.38,
1358.416,-69.08,
1358.436,-67.34,
1358.456,-70.06,
1358.476,-64.97,
1358.496,-64.77,
1358.516,-68.03,
1358.536,-69.31,
1358.556,-67.4,
1358.576,-210.0,
1358.596,-65.84,
1358.616,-65.23,
1358.636,-68.15,
1358.656,-69.87,
1358.676,-72.07,
1358.696,-68.24,
1358.716,-69.19,
1358.736,-63.38,
1358.756,-64.47,
1358.776,-66.43,
1358.796,-65.47,
1358.816,-67.12,
1358.836,-65.12,
1358.856,-63.58,
1358.876,-64.89,
1358.896,-64.87,
1358.916,-66.91,
1358.936,-66.5,
1358.956,-68.72,
1358.976,-67.09,
1358.996,-63.51,
1359.016,-63.07,
1359.036,-63.98,
1359.056,-65.59,
1359.076,-65.22,
1359.096,-65.47,
1359.116,-63.68,
1359.136,-63.92,
1359.156,-64.89,
1359.176,-65.13,
1359.196,-62.95,
1359.216,-65.59,
1359.236,-67.62,
1359.256,-64.05,
1359.276,-64.03,
1359.296,-67.13,
1359.316,-71.69,
1359.336,-69.78,
1359.356,-70.1,
1359.376,-66.94,
1359.396,-65.68,
1359.416,-70.1,
1359.436,-72.14,
1359.456,-64.47,
1359.476,-68.46,
1359.496,-73.55,
1359.516,-65.37,
1359.536,-66.6,
1359.556,-66.36,
1359.576,-68.24,
1359.596,-67.48,
1359.616,-66.22,
1359.636,-68.17,
1359.656,-64.93,
1359.676,-70.06,
1359.696,-70.84,
1359.716,-65.58,
1359.736,-70.74,
1359.756,-210.0,
1359.776,-68.44,
1359.796,-68.06,
1359.816,-210.0,
1359.836,-210.0,
1359.856,-69.41,
1359.876,-71.88,
1359.896,-72.26,
1359.916,-73.34,
1359.936,-210.0,
1359.956,-73.19,
1359.976,-67.25,
1359.996,-71.47,
1360.016,-210.0,
1360.036,-67.95,
1360.056,-69.11,
1360.076,-210.0,
1360.096,-210.0,
1360.116,-71.38,
1360.136,-210.0,
1360.156,-75.17,
1360.176,-80.41,
1360.196,-210.0,
1360.216,-210.0,
1360.236,-73.38,
1360.256,-75.44,
1360.276,-210.0,
1360.296,-76.83,
1360.316,-68.78,
1360.336,-210.0,
1360.356,-210.0,
1360.376,-71.27,
1360.396,-210.0,
1360.416,-210.0,
1360.436,-210.0,
1360.456,-210.0,
1360.476,-210.0,
1360.496,-69.88,
1360.516,-83.31,
1360.536,-210.0,
1360.556,-76.04,
1360.576,-70.73,
1360.596,-210.0,
1360.616,-210.0,
1360.636,-74.26,
1360.656,-79.48,
1360.676,-71.98,
1360.696,-70.61,
1360.716,-210.0,
1360.736,-80.42,
1360.756,-66.55,
1360.776,-65.56,
1360.796,-210.0,
1360.816,-67.85,
1360.836,-66.07,
1360.856,-210.0,
1360.876,-68.71,
1360.896,-65.24,
1360.916,-68.86,
1360.936,-76.84,
1360.956,-65.68,
1360.976,-68.88,
1360.996,-210.0,
1361.016,-67.2,
1361.036,-70.53,
1361.056,-210.0,
1361.076,-210.0,
1361.096,-70.99,
1361.116,-78.34,
1361.136,-78.23,
1361.156,-66.87,
1361.176,-210.0,
1361.196,-210.0,
1361.216,-67.1,
1361.236,-69.62,
1361.256,-210.0,
1361.276,-210.0,
1361.297,-210.0,
1361.317,-210.0,
1361.336,-210.0,
1361.356,-67.84,
1361.376,-210.0,
1361.396,-210.0,
1361.417,-72.12,
1361.437,-210.0,
1361.457,-83.13,
1361.476,-70.5,
1361.496,-210.0,
1361.516,-210.0,
1361.536,-70.74,
1361.557,-210.0,
1361.577,-210.0,
1361.597,-68.12,
1361.616,-65.97,
1361.636,-210.0,
1361.656,-210.0,
1361.677,-72.5,
1361.697,-210.0,
1361.717,-210.0,
1361.737,-68.84,
1361.756,-210.0,
1361.776,-210.0,
1361.797,-71.41,
1361.817,-74.93,
1361.837,-210.0,
1361.857,-71.66,
1361.877,-78.11,
1361.896,-210.0,
1361.917,-66.54,
1361.937,-65.62,
1361.957,-210.0,
1361.977,-69.76,
1361.997,-66.06,
1362.017,-78.95,
1362.036,-210.0,
1362.057,-63.78,
1362.077,-66.11,
1362.097,-210.0,
1362.117,-78.51,
1362.137,-68.27,
1362.157,-210.0,
1362.177,-67.23,
1362.197,-64.83,
1362.217,-210.0,
1362.237,-210.0,
1362.257,-64.9,
1362.277,-66.64,
1362.297,-68.06,
1362.317,-63.64,
1362.337,-68.31,
1362.357,-70.86,
1362.377,-63.13,
1362.397,-63.51,
1362.417,-69.35,
1362.437,-66.07,
1362.457,-65.29,
1362.477,-65.92,
1362.497,-62.88,
1362.517,-62.86,
1362.537,-68.46,
1362.557,-69.13,
1362.577,-63.5,
1362.597,-68.01,
1362.617,-68.37,
1362.637,-62.41,
1362.657,-62.4,
1362.677,-67.41,
1362.697,-64.05,
1362.717,-63.41,
1362.737,-65.95,
1362.757,-62.26,
1362.777,-61.6,
1362.797,-65.49,
1362.817,-64.58,
1362.837,-62.47,
1362.857,-63.39,
1362.877,-64.06,
1362.897,-63.47,
1362.917,-68.66,
1362.937,-70.85,
1362.957,-63.09,
1362.977,-64.61,
1362.997,-74.39,
1363.017,-68.69,
1363.037,-65.8,
1363.057,-70.95,
1363.077,-67.49,
1363.097,-62.59,
1363.117,-63.61,
1363.137,-66.13,
1363.157,-63.62,
1363.177,-66.1,
1363.197,-73.7,
1363.217,-64.03,
1363.237,-63.77,
1363.257,-74.22,
1363.277,-69.68,
1363.297,-65.55,
1363.317,-69.24,
1363.337,-66.89,
1363.357,-64.76,
1363.377,-210.0,
1363.397,-210.0,
1363.417,-64.36,
1363.437,-67.6,
1363.457,-75.25,
1363.477,-65.96,
1363.497,-210.0,
1363.517,-210.0,
1363.537,-64.88,
1363.557,-65.76,
1363.577,-210.0,
1363.597,-75.62,
1363.617,-69.72,
1363.637,-210.0,
1363.657,-210.0,
1363.677,-70.14,
1363.697,-210.0,
1363.717,-210.0,
1363.737,-210.0,
1363.757,-210.0,
1363.777,-210.0,
1363.797,-70.05,
1363.817,-73.37,
1363.837,-210.0,
1363.857,-210.0,
1363.877,-210.0,
1363.897,-210.0,
1363.917,-70.26,
1363.937,-67.35,
1363.957,-210.0,
1363.977,-210.0,
1363.997,-66.81,
1364.017,-74.78,
1364.037,-210.0,
1364.057,-66.8,
1364.077,-75.37,
1364.097,-210.0,
1364.117,-73.35,
1364.137,-68.65,
1364.157,-210.0,
1364.177,-68.77,
1364.197,-64.73,
1364.217,-210.0,
1364.237,-210.0,
1364.257,-64.17,
1364.277,-66.64,
1364.297,-69.34,
1364.317,-64.66,
1364.337,-69.35,
1364.357,-210.0,
1364.377,-64.24,
1364.397,-66.75,
1364.417,-210.0,
1364.437,-66.11,
1364.457,-69.71,
1364.477,-210.0,
1364.497,-64.7,
1364.517,-64.3,
1364.537,-210.0,
1364.557,-72.89,
1364.577,-64.34,
1364.597,-71.23,
1364.617,-72.19,
1364.637,-63.39,
1364.657,-66.82,
1364.677,-210.0,
1364.697,-63.89,
1364.717,-64.65,
1364.737,-87.72,
1364.757,-63.96,
1364.777,-65.54,
1364.797,-210.0,
1364.817,-65.73,
1364.837,-64.69,
1364.857,-210.0,
1364.877,-68.18,
1364.897,-65.76,
1364.917,-210.0,
1364.937,-210.0,
1364.957,-64.14,
1364.977,-72.03,
1364.997,-210.0,
1365.017,-67.05,
1365.037,-210.0,
1365.057,-210.0,
1365.077,-64.74,
1365.097,-68.46,
1365.117,-210.0,
1365.137,-70.28,
1365.157,-67.99,
1365.177,-210.0,
1365.197,-210.0,
1365.217,-68.36,
1365.237,-210.0,
1365.257,-81.59,
1365.277,-68.62,
1365.297,-210.0,
1365.317,-210.0,
1365.337,-67.37,
1365.357,-210.0,
1365.377,-210.0,
1365.397,-66.19,
1365.417,-74.36,
1365.437,-210.0,
1365.457,-65.82,
1365.477,-66.41,
1365.497,-210.0,
1365.517,-71.36,
1365.537,-65.8,
1365.557,-210.0,
1365.577,-73.79,
1365.597,-66.3,
1365.617,-210.0,
1365.637,-210.0,
1365.657,-67.56,
1365.677,-210.0,
1365.697,-210.0,
1365.717,-65.65,
1365.737,-210.0,
1365.757,-210.0,
1365.777,-67.01,
1365.797,-74.59,
1365.817,-210.0,
1365.837,-66.96,
1365.857,-66.55,
1365.877,-210.0,
1365.897,-65.09,
1365.917,-65.61,
1365.937,-210.0,
1365.957,-72.94,
1365.977,-64.99,
1365.997,-210.0,
1366.017,-77.27,
1366.037,-64.95,
1366.057,-210.0,
1366.077,-210.0,
1366.097,-65.4,
1366.117,-70.99,
1366.137,-210.0,
1366.157,-65.95,
1366.177,-72.25,
1366.197,-210.0,
1366.217,-64.35,
1366.237,-66.99,
1366.257,-210.0,
1366.277,-67.88,
1366.297,-65.74,
1366.317,-210.0,
1366.337,-68.44,
1366.357,-66.06,
1366.377,-210.0,
1366.397,-210.0,
1366.417,-65.73,
1366.437,-210.0,
1366.457,-210.0,
1366.477,-68.24,
1366.497,-210.0,
1366.517,-210.0,
1366.537,-66.61,
1366.557,-68.3,
1366.577,-210.0,
1366.597,-68.44,
1366.617,-67.01,
1366.637,-210.0,
1366.657,-66.5,
1366.677,-64.61,
1366.697,-210.0,
1366.717,-73.64,
1366.737,-63.23,
1366.757,-72.41,
1366.777,-67.6,
1366.797,-64.92,
1366.817,-210.0,
1366.837,-210.0,
1366.857,-66.64,
1366.877,-86.2,
1366.897,-210.0,
1366.917,-67.34,
1366.937,-73.63,
1366.957,-210.0,
1366.977,-68.81,
1366.997,-65.66,
1367.017,-210.0,
1367.037,-210.0,
1367.057,-66.75,
1367.077,-210.0,
1367.097,-70.53,
1367.117,-65.23,
1367.137,-210.0,
1367.157,-210.0,
1367.177,-66.01,
1367.197,-69.95,
1367.217,-210.0,
1367.237,-66.5,
1367.257,-210.0,
1367.277,-210.0,
1367.297,-68.54,
1367.317,-68.24,
1367.337,-210.0,
1367.357,-69.66,
1367.377,-68.45,
1367.397,-210.0,
1367.417,-71.33,
1367.437,-66.85,
1367.457,-210.0,
1367.477,-210.0,
1367.497,-66.08,
1367.517,-210.0,
1367.537,-210.0,
1367.557,-67.6,
1367.577,-210.0,
1367.597,-210.0,
1367.617,-70.44,
1367.637,-77.16,
1367.657,-210.0,
1367.677,-71.02,
1367.697,-210.0,
1367.717,-210.0,
1367.737,-210.0,
1367.757,-74.73,
1367.777,-210.0,
1367.797,-210.0,
1367.817,-65.22,
1367.837,-210.0,
1367.857,-68.03,
1367.877,-66.65,
1367.897,-210.0,
1367.917,-210.0,
1367.937,-63.68,
1367.957,-210.0,
1367.977,-210.0,
1367.997,-69.92,
1368.017,-69.28,
1368.037,-210.0,
1368.057,-64.96,
1368.077,-73.69,
1368.097,-210.0,
1368.117,-69.91,
1368.137,-66.67,
1368.157,-84.82,
1368.177,-210.0,
1368.197,-71.23,
1368.217,-210.0,
1368.237,-210.0,
1368.257,-65.8,
1368.277,-210.0,
1368.297,-210.0,
1368.317,-66.68,
1368.337,-210.0,
1368.357,-210.0,
1368.377,-68.81,
1368.397,-210.0,
1368.417,-210.0,
1368.437,-67.42,
1368.457,-210.0,
1368.477,-210.0,
1368.497,-68.79,
1368.517,-70.22,
1368.537,-210.0,
1368.557,-68.92,
1368.577,-68.58,
1368.597,-210.0,
1368.617,-71.53,
1368.637,-66.2,
1368.657,-210.0,
1368.677,-210.0,
1368.697,-66.73,
1368.717,-210.0,
1368.737,-210.0,
1368.757,-67.79,
1368.777,-210.0,
1368.797,-210.0,
1368.817,-210.0,
1368.837,-210.0,
1368.857,-210.0,
1368.877,-210.0,
1368.897,-210.0,
1368.917,-210.0,
1368.937,-210.0,
1368.957,-210.0,
1368.977,-210.0,
1368.997,-72.64,
1369.017,-93.24,
1369.037,-210.0,
1369.057,-210.0,
1369.077,-73.24,
1369.097,-210.0,
1369.117,-210.0,
1369.137,-210.0,
1369.157,-210.0,
1369.177,-210.0,
1369.198,-68.37,
1369.217,-210.0,
1369.237,-210.0,
1369.257,-70.15,
1369.277,-210.0,
1369.297,-210.0,
1369.318,-66.72,
1369.338,-210.0,
1369.357,-210.0,
1369.377,-67.81,
1369.397,-210.0,
1369.417,-210.0,
1369.438,-67.98,
1369.458,-69.22,
1369.478,-210.0,
1369.497,-68.5,
1369.517,-68.53,
1369.537,-210.0,
1369.557,-210.0,
1369.578,-66.55,
1369.598,-210.0,
1369.618,-210.0,
1369.637,-68.96,
1369.657,-210.0,
1369.677,-210.0,
1369.698,-67.19,
1369.718,-210.0,
1369.738,-210.0,
1369.758,-70.65,
1369.778,-210.0,
1369.797,-75.95,
1369.818,-63.59,
1369.838,-210.0,
1369.858,-210.0,
1369.878,-68.82,
1369.898,-66.56,
1369.918,-76.32,
1369.938,-67.71,
1369.958,-72.69,
1369.978,-210.0,
1369.998,-210.0,
1370.018,-66.47,
1370.038,-210.0,
1370.058,-210.0,
1370.078,-106.21,
1370.098,-210.0,
1370.118,-210.0,
1370.138,-67.22,
1370.158,-210.0,
1370.178,-210.0,
1370.198,-210.0,
1370.218,-210.0,
1370.238,-210.0,
1370.258,-210.0,
1370.278,-210.0,
1370.298,-210.0,
1370.318,-210.0,
1370.338,-210.0,
1370.358,-210.0,
1370.378,-210.0,
1370.398,-210.0,
1370.418,-210.0,
1370.438,-210.0,
1370.458,-210.0,
1370.478,-210.0,
1370.498,-210.0,
1370.518,-210.0,
1370.538,-210.0,
1370.558,-210.0,
1370.578,-210.0,
1370.598,-210.0,
1370.618,-210.0,
1370.638,-210.0,
1370.658,-210.0,
1370.678,-210.0,
1370.698,-210.0,
1370.718,-210.0,
1370.738,-210.0,
1370.758,-210.0,
1370.778,-210.0,
1370.798,-210.0,
1370.818,-210.0,
1370.838,-210.0,
1370.858,-210.0,
1370.878,-210.0,
1370.898,-210.0,
1370.918,-210.0,
1370.938,-210.0,
1370.958,-210.0,
1370.978,-210.0,
1370.998,-210.0,
1371.018,-210.0,
1371.038,-210.0,
1371.058,-210.0,
1371.078,-70.35,
1371.098,-70.11,
1371.118,-210.0,
1371.138,-95.48,
1371.158,-70.57,
1371.178,-67.06,
1371.198,-67.72,
1371.218,-76.12,
1371.238,-67.13,
1371.258,-66.77,
1371.278,-67.7,
1371.298,-75.05,
1371.318,-72.71,
1371.338,-65.12,
1371.358,-65.89,
1371.378,-69.14,
1371.398,-75.21,
1371.418,-68.26,
1371.438,-67.9,
1371.458,-65.42,
1371.478,-65.19,
1371.498,-68.81,
1371.518,-69.36,
1371.538,-64.33,
1371.558,-66.09,
1371.578,-68.87,
1371.598,-65.79,
1371.618,-67.65,
1371.638,-63.82,
1371.658,-63.29,
1371.678,-65.07,
1371.698,-64.67,
1371.718,-62.78,
1371.738,-63.52,
1371.758,-64.67,
1371.778,-63.72,
1371.798,-64.64,
1371.818,-63.74,
1371.838,-64.94,
1371.858,-67.86,
1371.878,-65.16,
1371.898,-62.92,
1371.918,-63.74,
1371.938,-65.62,
1371.958,-67.02,
1371.978,-64.33,
1371.998,-66.26,
1372.018,-64.58,
1372.038,-64.98,
1372.058,-63.76,
1372.078,-63.68,
1372.098,-64.72,
1372.118,-67.28,
1372.138,-66.49,
1372.158,-66.34,
1372.178,-66.74,
1372.198,-64.35,
1372.218,-67.12,
1372.238,-67.02,
1372.258,-68.81,
1372.278,-67.03,
1372.298,-64.8,
1372.318,-68.68,
1372.338,-65.52,
1372.358,-66.32,
1372.378,-64.92,
1372.398,-65.43,
1372.418,-68.34,
1372.438,-68.99,
1372.458,-65.78,
1372.478,-66.27,
1372.498,-65.62,
1372.518,-70.31,
1372.538,-68.14,
1372.558,-64.38,
1372.578,-66.27,
1372.598,-64.88,
1372.618,-65.76,
1372.638,-64.58,
1372.658,-64.89,
1372.678,-70.44,
1372.698,-210.0,
1372.718,-75.23,
1372.738,-69.2,
1372.758,-68.37,
1372.778,-74.08,
1372.798,-210.0,
1372.818,-210.0,
1372.838,-67.35,
1372.858,-66.31,
1372.878,-73.56,
1372.898,-210.0,
1372.918,-71.61,
1372.938,-66.6,
1372.958,-69.8,
1372.978,-70.37,
1372.998,-210.0,
1373.018,-71.18,
1373.038,-210.0,
1373.058,-210.0,
1373.078,-210.0,
1373.098,-210.0,
1373.118,-210.0,
1373.138,-210.0,
1373.158,-210.0,
1373.178,-210.0,
1373.198,-210.0,
1373.218,-210.0,
1373.238,-210.0,
1373.258,-210.0,
1373.278,-210.0,
1373.298,-72.44,
1373.318,-210.0,
1373.338,-210.0,
1373.358,-69.26,
1373.378,-210.0,
1373.398,-210.0,
1373.418,-67.66,
1373.438,-210.0,
1373.458,-210.0,
1373.478,-68.78,
1373.498,-210.0,
1373.518,-210.0,
1373.538,-210.0,
1373.558,-210.0,
1373.578,-210.0,
1373.598,-210.0,
1373.618,-210.0,
1373.638,-210.0,
1373.658,-210.0,
1373.678,-210.0,
1373.698,-210.0,
1373.718,-210.0,
1373.738,-210.0,
1373.758,-210.0,
1373.778,-210.0,
1373.798,-68.56,
1373.818,-210.0,
1373.838,-210.0,
1373.858,-210.0,
1373.878,-210.0,
1373.898,-210.0,
1373.918,-210.0,
1373.938,-210.0,
1373.958,-210.0,
1373.978,-210.0,
1373.998,-210.0,
1374.018,-74.71,
1374.038,-210.0,
1374.058,-71.51,
1374.078,-66.77,
1374.098,-70.43,
1374.118,-68.39,
1374.138,-210.0,
1374.158,-70.39,
1374.178,-64.62,
1374.198,-66.93,
1374.218,-70.92,
1374.238,-65.15,
1374.258,-70.58,
1374.278,-210.0,
1374.298,-70.74,
1374.318,-66.03,
1374.338,-210.0,
1374.358,-70.19,
1374.378,-67.62,
1374.398,-210.0,
1374.418,-65.79,
1374.438,-65.95,
1374.458,-210.0,
1374.478,-210.0,
1374.498,-64.38,
1374.518,-77.14,
1374.538,-70.57,
1374.558,-64.59,
1374.578,-67.6,
1374.598,-65.5,
1374.618,-66.65,
1374.638,-87.58,
1374.658,-210.0,
1374.678,-65.87,
1374.698,-68.4,
1374.718,-70.03,
1374.738,-66.41,
1374.758,-66.44,
1374.778,-73.66,
1374.798,-66.46,
1374.818,-70.35,
1374.838,-67.17,
1374.858,-65.62,
1374.878,-66.65,
1374.898,-69.96,
1374.918,-66.79,
1374.938,-64.95,
1374.958,-66.46,
1374.978,-65.59,
1374.998,-66.42,
1375.018,-67.12,
1375.038,-65.19,
1375.058,-67.82,
1375.078,-68.43,
1375.098,-66.92,
1375.118,-67.47,
1375.138,-65.49,
1375.158,-68.55,
1375.178,-69.37,
1375.198,-67.03,
1375.218,-75.93,
1375.238,-72.82,
1375.258,-64.41,
1375.278,-66.69,
1375.298,-64.84,
1375.318,-65.61,
1375.338,-68.25,
1375.358,-67.47,
1375.378,-64.58,
1375.398,-69.08,
1375.418,-68.9,
1375.438,-64.79,
1375.458,-65.38,
1375.478,-71.0,
1375.498,-67.21,
1375.518,-65.86,
1375.538,-66.24,
1375.558,-66.85,
1375.578,-66.76,
1375.598,-65.46,
1375.618,-64.18,
1375.638,-64.98,
1375.658,-65.95,
1375.678,-65.06,
1375.698,-66.27,
1375.718,-64.88,
1375.738,-66.35,
1375.758,-66.32,
1375.778,-65.53,
1375.798,-65.26,
1375.818,-68.04,
1375.838,-72.45,
1375.858,-70.61,
1375.878,-210.0,
1375.898,-72.67,
1375.918,-73.1,
1375.938,-71.81,
1375.958,-64.85,
1375.978,-67.11,
1375.998,-71.49,
1376.018,-64.94,
1376.038,-66.47,
1376.058,-210.0,
1376.078,-69.41,
1376.098,-65.12,
1376.118,-68.13,
1376.138,-67.85,
1376.158,-68.13,
1376.178,-79.19,
1376.198,-65.33,
1376.218,-63.92,
1376.238,-210.0,
1376.258,-70.58,
1376.278,-65.48,
1376.298,-71.91,
1376.318,-66.82,
1376.338,-66.3,
1376.358,-68.96,
1376.378,-65.57,
1376.398,-63.58,
1376.418,-210.0,
1376.438,-210.0,
1376.458,-64.74,
1376.478,-69.62,
1376.498,-67.98,
1376.518,-64.69,
1376.538,-66.54,
1376.558,-68.72,
1376.578,-64.83,
1376.598,-210.0,
1376.618,-210.0,
1376.638,-65.13,
1376.658,-68.91,
1376.678,-210.0,
1376.698,-65.22,
1376.718,-71.68,
1376.738,-74.93,
1376.758,-64.49,
1376.778,-86.04,
1376.798,-210.0,
1376.818,-63.75,
1376.838,-67.62,
1376.858,-72.0,
1376.878,-63.75,
1376.898,-63.72,
1376.918,-68.45,
1376.938,-66.51,
1376.958,-86.7,
1376.978,-72.73,
1376.998,-66.54,
1377.018,-210.0,
1377.038,-210.0,
1377.058,-66.18,
1377.078,-68.67,
1377.098,-210.0,
1377.118,-210.0,
1377.138,-77.31,
1377.158,-210.0,
1377.178,-210.0,
1377.198,-210.0,
1377.219,-210.0,
1377.238,-66.76,
1377.258,-68.81,
1377.278,-210.0,
1377.298,-210.0,
1377.318,-210.0,
1377.339,-210.0,
1377.359,-210.0,
1377.378,-210.0,
1377.398,-210.0,
1377.418,-210.0,
1377.438,-210.0,
1377.458,-210.0,
1377.479,-210.0,
1377.499,-210.0,
1377.519,-210.0,
1377.538,-210.0,
1377.558,-210.0,
1377.578,-210.0,
1377.599,-210.0,
1377.619,-71.15,
1377.639,-210.0,
1377.659,-210.0,
1377.678,-73.52,
1377.698,-210.0,
1377.719,-210.0,
1377.739,-210.0,
1377.759,-210.0,
1377.779,-210.0,
1377.799,-210.0,
1377.818,-210.0,
1377.839,-210.0,
1377.859,-70.38,
1377.879,-210.0,
1377.899,-70.8,
1377.919,-65.74,
1377.939,-210.0,
1377.958,-70.22,
1377.979,-68.47,
1377.999,-210.0,
1378.019,-66.88,
1378.039,-66.12,
1378.059,-210.0,
1378.079,-68.69,
1378.099,-63.88,
1378.119,-210.0,
1378.139,-65.82,
1378.159,-66.22,
1378.179,-210.0,
1378.199,-68.71,
1378.219,-65.02,
1378.239,-210.0,
1378.259,-69.38,
1378.279,-64.79,
1378.299,-210.0,
1378.319,-65.36,
1378.339,-62.61,
1378.359,-70.74,
1378.379,-64.1,
1378.399,-61.89,
1378.419,-71.24,
1378.439,-65.53,
1378.459,-62.12,
1378.479,-68.16,
1378.499,-63.67,
1378.519,-63.07,
1378.539,-70.43,
1378.559,-64.15,
1378.579,-62.4,
1378.599,-210.0,
1378.619,-67.29,
1378.639,-63.94,
1378.659,-210.0,
1378.679,-69.57,
1378.699,-63.18,
1378.719,-69.86,
1378.739,-64.29,
1378.759,-61.99,
1378.779,-68.04,
1378.799,-64.36,
1378.819,-62.7,
1378.839,-210.0,
1378.859,-64.55,
1378.879,-64.17,
1378.899,-210.0,
1378.919,-66.66,
1378.939,-64.4,
1378.959,-210.0,
1378.979,-65.31,
1378.999,-63.16,
1379.019,-71.34,
1379.039,-67.47,
1379.059,-65.96,
1379.079,-210.0,
1379.099,-65.82,
1379.119,-66.08,
1379.139,-210.0,
1379.159,-66.15,
1379.179,-62.59,
1379.199,-73.27,
1379.219,-68.55,
1379.239,-67.0,
1379.259,-70.53,
1379.279,-67.22,
1379.299,-64.36,
1379.319,-210.0,
1379.339,-66.19,
1379.359,-64.76,
1379.379,-210.0,
1379.399,-73.06,
1379.419,-65.14,
1379.439,-68.2,
1379.459,-68.96,
1379.479,-64.51,
1379.499,-69.99,
1379.519,-64.78,
1379.539,-63.39,
1379.559,-76.04,
1379.579,-75.09,
1379.599,-63.87,
1379.619,-74.61,
1379.639,-72.53,
1379.659,-64.73,
1379.679,-69.83,
1379.699,-68.04,
1379.719,-64.99,
1379.739,-210.0,
1379.759,-71.14,
1379.779,-63.66,
1379.799,-210.0,
1379.819,-75.48,
1379.839,-65.02,
1379.859,-210.0,
1379.879,-210.0,
1379.899,-67.6,
1379.919,-210.0,
1379.939,-68.2,
1379.959,-65.09,
1379.979,-210.0,
1379.999,-71.88,
1380.019,-65.38,
1380.039,-71.63,
1380.059,-80.11,
1380.079,-65.38,
1380.099,-73.17,
1380.119,-210.0,
1380.139,-66.58,
1380.159,-210.0,
1380.179,-72.83,
1380.199,-64.11,
1380.219,-69.22,
1380.239,-69.3,
1380.259,-63.22,
1380.279,-71.48,
1380.299,-73.41,
1380.319,-64.05,
1380.339,-72.57,
1380.359,-79.75,
1380.379,-63.7,
1380.399,-67.88,
1380.419,-69.57,
1380.439,-64.96,
1380.459,-210.0,
1380.479,-67.28,
1380.499,-65.44,
1380.519,-210.0,
1380.539,-210.0,
1380.559,-64.13,
1380.579,-210.0,
1380.599,-68.68,
1380.619,-63.8,
1380.639,-68.57,
1380.659,-65.77,
1380.679,-63.22,
1380.699,-74.0,
1380.719,-68.87,
1380.739,-63.77,
1380.759,-210.0,
1380.779,-77.49,
1380.799,-64.72,
1380.819,-210.0,
1380.839,-68.41,
1380.859,-63.87,
1380.879,-69.88,
1380.899,-66.12,
1380.919,-63.53,
1380.939,-210.0,
1380.959,-69.87,
1380.979,-65.79,
1380.999,-210.0,
1381.019,-210.0,
1381.039,-67.51,
1381.059,-210.0,
1381.079,-210.0,
1381.099,-66.95,
1381.119,-210.0,
1381.139,-73.54,
1381.159,-65.69,
1381.179,-210.0,
1381.199,-210.0,
1381.219,-70.49,
1381.239,-210.0,
1381.259,-210.0,
1381.279,-69.35,
1381.299,-210.0,
1381.319,-210.0,
1381.339,-71.26,
1381.359,-210.0,
1381.379,-210.0,
1381.399,-210.0,
1381.419,-210.0,
1381.439,-210.0,
1381.459,-210.0,
1381.479,-210.0,
1381.499,-210.0,
1381.519,-210.0,
1381.539,-210.0,
1381.559,-210.0,
1381.579,-210.0,
1381.599,-210.0,
1381.619,-210.0,
1381.639,-210.0,
1381.659,-210.0,
1381.679,-210.0,
1381.699,-210.0,
1381.719,-210.0,
1381.739,-210.0,
1381.759,-210.0,
1381.779,-210.0,
1381.799,-210.0,
1381.819,-210.0,
1381.839,-210.0,
1381.859,-210.0,
1381.879,-210.0,
1381.899,-210.0,
1381.919,-210.0,
1381.939,-210.0,
1381.959,-210.0,
1381.979,-210.0,
1381.999,-210.0,
1382.019,-210.0,
1382.039,-210.0,
1382.059,-210.0,
1382.079,-210.0,
1382.099,-72.36,
1382.119,-210.0,
1382.139,-210.0,
1382.159,-210.0,
1382.179,-210.0,
1382.199,-210.0,
1382.219,-210.0,
1382.239,-210.0,
1382.259,-210.0,
1382.279,-210.0,
1382.299,-210.0,
1382.319,-210.0,
1382.339,-80.75,
1382.359,-210.0,
1382.379,-210.0,
1382.399,-210.0,
1382.419,-210.0,
1382.439,-210.0,
1382.459,-210.0,
1382.479,-210.0,
1382.499,-210.0,
1382.519,-210.0,
1382.539,-210.0,
1382.559,-210.0,
1382.579,-67.79,
1382.599,-80.65,
1382.619,-210.0,
1382.639,-65.45,
1382.659,-83.19,
1382.679,-210.0,
1382.699,-65.98,
1382.719,-69.04,
1382.739,-210.0,
1382.759,-67.33,
1382.779,-75.51,
1382.799,-73.53,
1382.819,-67.24,
1382.839,-210.0,
1382.859,-74.94,
1382.879,-67.07,
1382.899,-77.17,
1382.919,-210.0,
1382.939,-63.96,
1382.959,-73.11,
1382.979,-68.41,
1382.999,-65.15,
1383.019,-210.0,
1383.039,-69.87,
1383.059,-66.5,
1383.079,-79.04,
1383.099,-71.47,
1383.119,-66.03,
1383.139,-210.0,
1383.159,-69.91,
1383.179,-67.44,
1383.199,-210.0,
1383.219,-69.26,
1383.239,-65.93,
1383.259,-210.0,
1383.279,-68.34,
1383.299,-67.0,
1383.319,-210.0,
1383.339,-65.76,
1383.359,-66.42,
1383.379,-210.0,
1383.399,-69.84,
1383.419,-69.08,
1383.439,-210.0,
1383.459,-66.38,
1383.479,-210.0,
1383.499,-210.0,
1383.519,-210.0,
1383.539,-77.42,
1383.559,-210.0,
1383.579,-76.96,
1383.599,-210.0,
1383.619,-210.0,
1383.639,-68.82,
1383.659,-210.0,
1383.679,-210.0,
1383.699,-73.48,
1383.719,-210.0,
1383.739,-210.0,
1383.759,-70.43,
1383.779,-210.0,
1383.799,-210.0,
1383.819,-67.76,
1383.839,-210.0,
1383.859,-210.0,
1383.879,-67.89,
1383.899,-210.0,
1383.919,-210.0,
1383.939,-69.26,
1383.959,-210.0,
1383.979,-210.0,
1383.999,-74.51,
1384.019,-210.0,
1384.039,-210.0,
1384.059,-74.11,
1384.079,-210.0,
1384.099,-210.0,
1384.119,-69.08,
1384.139,-210.0,
1384.159,-210.0,
1384.179,-65.73,
1384.199,-210.0,
1384.219,-210.0,
1384.239,-64.98,
1384.259,-210.0,
1384.279,-83.69,
1384.299,-68.43,
1384.319,-210.0,
1384.339,-210.0,
1384.359,-210.0,
1384.379,-210.0,
1384.399,-210.0,
1384.419,-81.34,
1384.439,-210.0,
1384.459,-210.0,
1384.479,-69.14,
1384.499,-210.0,
1384.519,-73.49,
1384.539,-66.5,
1384.559,-210.0,
1384.579,-68.18,
1384.599,-66.05,
1384.619,-210.0,
1384.639,-65.38,
1384.659,-66.35,
1384.679,-210.0,
1384.699,-70.8,
1384.719,-68.7,
1384.739,-210.0,
1384.759,-66.03,
1384.779,-66.66,
1384.799,-67.72,
1384.819,-64.38,
1384.839,-68.53,
1384.859,-210.0,
1384.879,-64.53,
1384.899,-85.84,
1384.919,-210.0,
1384.939,-65.59,
1384.959,-72.42,
1384.979,-210.0,
1384.999,-66.14,
1385.019,-74.49,
1385.039,-210.0,
1385.059,-66.58,
1385.079,-210.0,
1385.099,-210.0,
1385.12,-65.74,
1385.139,-210.0,
1385.159,-210.0,
1385.179,-65.95,
1385.199,-210.0,
1385.219,-71.14,
1385.24,-65.92,
1385.26,-78.5,
1385.279,-210.0,
1385.299,-69.08,
1385.319,-65.92,
1385.339,-67.82,
1385.359,-67.51,
1385.38,-64.18,
1385.4,-65.63,
1385.419,-64.59,
1385.439,-67.72,
1385.459,-67.08,
1385.479,-68.96,
1385.5,-70.17,
1385.52,-73.25,
1385.54,-70.19,
1385.559,-74.44,
1385.579,-73.24,
1385.599,-76.18,
1385.62,-70.33,
1385.64,-70.08,
1385.66,-76.96,
1385.68,-70.6,
1385.699,-65.76,
1385.719,-70.1,
1385.74,-210.0,
1385.76,-67.04,
1385.78,-73.75,
1385.8,-210.0,
1385.82,-210.0,
1385.839,-210.0,
1385.859,-210.0,
1385.88,-76.29,
1385.9,-76.82,
1385.92,-210.0,
1385.94,-67.88,
1385.96,-210.0,
1385.98,-72.13,
1386.0,-67.61,
1386.02,-79.43,
1386.04,-73.59,
1386.06,-65.7,
1386.08,-68.2,
1386.1,-75.1,
1386.12,-66.22,
1386.14,-210.0,
1386.16,-77.3,
1386.18,-68.47,
1386.2,-210.0,
1386.22,-210.0,
1386.24,-85.14,
1386.26,-210.0,
1386.28,-210.0,
1386.3,-210.0,
1386.32,-210.0,
1386.34,-68.36,
1386.36,-210.0,
1386.38,-210.0,
1386.4,-67.07,
1386.42,-72.86,
1386.44,-210.0,
1386.46,-66.64,
1386.48,-72.05,
1386.5,-210.0,
1386.52,-69.14,
1386.54,-210.0,
1386.56,-210.0,
1386.58,-68.18,
1386.6,-210.0,
1386.62,-210.0,
1386.64,-210.0,
1386.66,-210.0,
1386.68,-210.0,
1386.7,-210.0,
1386.72,-210.0,
1386.74,-210.0,
1386.76,-210.0,
1386.78,-210.0,
1386.8,-210.0,
1386.82,-210.0,
1386.84,-210.0,
1386.86,-210.0,
1386.88,-210.0,
1386.9,-210.0,
1386.92,-210.0,
1386.94,-210.0,
1386.96,-210.0,
1386.98,-210.0,
1387.0,-210.0,
1387.02,-210.0,
1387.04,-210.0,
1387.06,-210.0,
1387.08,-210.0,
1387.1,-210.0,
1387.12,-210.0,
1387.14,-210.0,
1387.16,-210.0,
1387.18,-210.0,
1387.2,-210.0,
1387.22,-210.0,
1387.24,-70.41,
1387.26,-210.0,
1387.28,-210.0,
1387.3,-70.24,
1387.32,-210.0,
1387.34,-210.0,
1387.36,-210.0,
1387.38,-210.0,
1387.4,-210.0,
1387.42,-210.0,
1387.44,-210.0,
1387.46,-210.0,
1387.48,-69.62,
1387.5,-210.0,
1387.52,-210.0,
1387.54,-69.24,
1387.56,-210.0,
1387.58,-69.56,
1387.6,-72.65,
1387.62,-210.0,
1387.64,-63.96,
1387.66,-66.28,
1387.68,-71.0,
1387.7,-62.49,
1387.72,-64.04,
1387.74,-66.13,
1387.76,-64.61,
1387.78,-65.8,
1387.8,-67.0,
1387.82,-67.5,
1387.84,-73.0,
1387.86,-65.9,
1387.88,-67.16,
1387.9,-76.36,
1387.92,-66.72,
1387.94,-67.25,
1387.96,-76.4,
1387.98,-68.01,
1388.0,-67.36,
1388.02,-65.2,
1388.04,-65.28,
1388.06,-63.69,
1388.08,-66.81,
1388.1,-65.96,
1388.12,-64.66,
1388.14,-66.26,
1388.16,-66.61,
1388.18,-66.61,
1388.2,-67.94,
1388.22,-66.45,
1388.24,-68.33,
1388.26,-69.84,
1388.28,-66.99,
1388.3,-65.2,
1388.32,-64.6,
1388.34,-66.31,
1388.36,-65.08,
1388.38,-63.96,
1388.4,-63.09,
1388.42,-63.62,
1388.44,-64.9,
1388.46,-65.2,
1388.48,-65.58,
1388.5,-67.66,
1388.52,-65.29,
1388.54,-65.11,
1388.56,-68.36,
1388.58,-72.11,
1388.6,-71.89,
1388.62,-77.95,
1388.64,-77.88,
1388.66,-70.09,
1388.68,-69.76,
1388.7,-210.0,
1388.72,-72.93,
1388.74,-69.74,
1388.76,-210.0,
1388.78,-210.0,
1388.8,-66.08,
1388.82,-210.0,
1388.84,-210.0,
1388.86,-68.32,
1388.88,-67.19,
1388.9,-68.33,
1388.92,-71.67,
1388.94,-71.69,
1388.96,-67.2,
1388.98,-65.43,
1389.0,-72.04,
1389.02,-66.27,
1389.04,-65.23,
1389.06,-69.33,
1389.08,-65.3,
1389.1,-66.89,
1389.12,-71.23,
1389.14,-64.66,
1389.16,-66.39,
1389.18,-67.31,
1389.2,-64.61,
1389.22,-66.5,
1389.24,-68.36,
1389.26,-65.88,
1389.28,-73.45,
1389.3,-210.0,
1389.32,-64.73,
1389.34,-71.15,
1389.36,-68.84,
1389.38,-67.48,
1389.4,-210.0,
1389.42,-67.1,
1389.44,-65.68,
1389.46,-70.41,
1389.48,-63.18,
1389.5,-64.67,
1389.52,-70.13,
1389.54,-63.3,
1389.56,-63.52,
1389.58,-64.77,
1389.6,-61.6,
1389.62,-62.36,
1389.64,-64.15,
1389.66,-63.82,
1389.68,-63.64,
1389.7,-68.75,
1389.72,-65.19,
1389.74,-66.24,
1389.76,-65.74,
1389.78,-66.96,
1389.8,-66.14,
1389.82,-64.48,
1389.84,-62.23,
1389.86,-69.23,
1389.88,-64.08,
1389.9,-62.8,
1389.92,-66.28,
1389.94,-65.43,
1389.96,-63.62,
1389.98,-70.0,
1390.0,-66.98,
