wavelength_axis,light_level,mean_wavelength,total_power
1250.0,-210.0,1313.363,-33.333054762845194
1250.015,-210.0,,
1250.03,-210.0,,
1250.045,-210.0,,
1250.06,-210.0,,
1250.075,-210.0,,
1250.09,-210.0,,
1250.105,-210.0,,
1250.12,-210.0,,
1250.135,-210.0,,
1250.15,-210.0,,
1250.165,-210.0,,
1250.18,-210.0,,
1250.195,-210.0,,
1250.21,-210.0,,
1250.225,-210.0,,
1250.24,-210.0,,
1250.255,-210.0,,
1250.27,-210.0,,
1250.285,-210.0,,
1250.3,-210.0,,
1250.315,-210.0,,
1250.33,-210.0,,
1250.345,-210.0,,
1250.36,-210.0,,
1250.375,-210.0,,
1250.39,-210.0,,
1250.405,-210.0,,
1250.42,-210.0,,
1250.435,-210.0,,
1250.45,-210.0,,
1250.465,-210.0,,
1250.48,-210.0,,
1250.495,-68.51,,
1250.51,-67.73,,
1250.525,-70.85,,
1250.54,-210.0,,
1250.555,-210.0,,
1250.57,-210.0,,
1250.585,-210.0,,
1250.6,-210.0,,
1250.615,-210.0,,
1250.63,-210.0,,
1250.645,-210.0,,
1250.66,-210.0,,
1250.675,-73.39,,
1250.69,-210.0,,
1250.705,-210.0,,
1250.72,-210.0,,
1250.735,-210.0,,
1250.75,-210.0,,
1250.765,-210.0,,
1250.78,-210.0,,
1250.795,-210.0,,
1250.81,-210.0,,
1250.825,-210.0,,
1250.84,-210.0,,
1250.855,-210.0,,
1250.87,-210.0,,
1250.885,-210.0,,
1250.9,-210.0,,
1250.915,-210.0,,
1250.93,-210.0,,
1250.945,-210.0,,
1250.96,-210.0,,
1250.975,-210.0,,
1250.99,-210.0,,
1251.005,-210.0,,
1251.02,-210.0,,
1251.035,-210.0,,
1251.05,-210.0,,
1251.065,-210.0,,
1251.08,-72.22,,
1251.095,-70.23,,
1251.11,-96.27,,
1251.125,-210.0,,
1251.14,-69.17,,
1251.155,-67.18,,
1251.17,-67.76,,
1251.185,-73.4,,
1251.2,-210.0,,
1251.215,-210.0,,
1251.23,-71.45,,
1251.245,-70.17,,
1251.26,-71.07,,
1251.275,-74.05,,
1251.29,-210.0,,
1251.305,-73.49,,
1251.32,-69.73,,
1251.335,-71.41,,
1251.35,-210.0,,
1251.365,-210.0,,
1251.38,-210.0,,
1251.395,-210.0,,
1251.41,-71.93,,
1251.425,-210.0,,
1251.44,-210.0,,
1251.455,-210.0,,
1251.47,-210.0,,
1251.485,-210.0,,
1251.5,-210.0,,
1251.515,-210.0,,
1251.53,-210.0,,
1251.545,-210.0,,
1251.56,-210.0,,
1251.575,-210.0,,
1251.59,-210.0,,
1251.605,-210.0,,
1251.62,-210.0,,
1251.635,-210.0,,
1251.65,-210.0,,
1251.665,-210.0,,
1251.68,-210.0,,
1251.695,-210.0,,
1251.71,-210.0,,
1251.725,-210.0,,
1251.74,-210.0,,
1251.755,-210.0,,
1251.77,-210.0,,
1251.785,-210.0,,
1251.8,-210.0,,
1251.815,-210.0,,
1251.83,-210.0,,
1251.845,-210.0,,
1251.86,-210.0,,
1251.875,-210.0,,
1251.89,-210.0,,
1251.905,-210.0,,
1251.92,-210.0,,
1251.935,-210.0,,
1251.95,-210.0,,
1251.965,-210.0,,
1251.98,-210.0,,
1251.995,-73.91,,
1252.01,-210.0,,
1252.025,-210.0,,
1252.04,-210.0,,
1252.055,-68.21,,
1252.07,-70.27,,
1252.085,-210.0,,
1252.1,-210.0,,
1252.115,-210.0,,
1252.13,-210.0,,
1252.145,-74.3,,
1252.16,-210.0,,
1252.175,-210.0,,
1252.19,-210.0,,
1252.205,-73.37,,
1252.22,-66.8,,
1252.235,-71.1,,
1252.25,-83.29,,
1252.265,-210.0,,
1252.28,-210.0,,
1252.295,-210.0,,
1252.31,-88.92,,
1252.325,-210.0,,
1252.34,-210.0,,
1252.355,-210.0,,
1252.37,-210.0,,
1252.385,-73.81,,
1252.4,-210.0,,
1252.415,-210.0,,
1252.43,-210.0,,
1252.445,-210.0,,
1252.46,-210.0,,
1252.475,-210.0,,
1252.49,-210.0,,
1252.505,-210.0,,
1252.52,-210.0,,
1252.535,-210.0,,
1252.55,-73.55,,
1252.565,-210.0,,
1252.58,-210.0,,
1252.595,-210.0,,
1252.61,-210.0,,
1252.625,-210.0,,
1252.64,-210.0,,
1252.655,-210.0,,
1252.67,-210.0,,
1252.685,-210.0,,
1252.7,-210.0,,
1252.715,-79.85,,
1252.73,-210.0,,
1252.745,-210.0,,
1252.76,-210.0,,
1252.775,-74.51,,
1252.79,-71.4,,
1252.805,-210.0,,
1252.82,-210.0,,
1252.835,-210.0,,
1252.85,-210.0,,
1252.865,-210.0,,
1252.88,-72.74,,
1252.895,-210.0,,
1252.91,-210.0,,
1252.925,-210.0,,
1252.94,-71.02,,
1252.955,-78.43,,
1252.97,-210.0,,
1252.985,-210.0,,
1253.0,-210.0,,
1253.015,-70.46,,
1253.03,-210.0,,
1253.045,-210.0,,
1253.06,-210.0,,
1253.075,-210.0,,
1253.09,-210.0,,
1253.105,-86.84,,
1253.12,-210.0,,
1253.135,-210.0,,
1253.15,-210.0,,
1253.165,-210.0,,
1253.18,-73.94,,
1253.195,-210.0,,
1253.21,-210.0,,
1253.225,-210.0,,
1253.24,-210.0,,
1253.255,-210.0,,
1253.271,-210.0,,
1253.285,-210.0,,
1253.3,-210.0,,
1253.315,-210.0,,
1253.33,-210.0,,
1253.345,-82.26,,
1253.36,-210.0,,
1253.375,-210.0,,
1253.391,-210.0,,
1253.406,-210.0,,
1253.421,-210.0,,
1253.435,-210.0,,
1253.45,-210.0,,
1253.465,-210.0,,
1253.48,-210.0,,
1253.495,-210.0,,
1253.51,-210.0,,
1253.526,-210.0,,
1253.541,-210.0,,
1253.556,-210.0,,
1253.571,-210.0,,
1253.585,-210.0,,
1253.6,-210.0,,
1253.615,-210.0,,
1253.63,-210.0,,
1253.646,-210.0,,
1253.661,-210.0,,
1253.676,-210.0,,
1253.691,-210.0,,
1253.706,-210.0,,
1253.72,-210.0,,
1253.735,-210.0,,
1253.75,-210.0,,
1253.766,-210.0,,
1253.781,-210.0,,
1253.796,-210.0,,
1253.811,-210.0,,
1253.826,-210.0,,
1253.841,-210.0,,
1253.856,-210.0,,
1253.87,-210.0,,
1253.885,-210.0,,
1253.901,-210.0,,
1253.916,-210.0,,
1253.931,-210.0,,
1253.946,-210.0,,
1253.961,-210.0,,
1253.976,-210.0,,
1253.991,-210.0,,
1254.005,-210.0,,
1254.021,-210.0,,
1254.036,-210.0,,
1254.051,-210.0,,
1254.066,-77.35,,
1254.081,-210.0,,
1254.096,-210.0,,
1254.111,-210.0,,
1254.126,-210.0,,
1254.141,-210.0,,
1254.156,-210.0,,
1254.171,-210.0,,
1254.186,-210.0,,
1254.201,-210.0,,
1254.216,-210.0,,
1254.231,-210.0,,
1254.246,-210.0,,
1254.261,-210.0,,
1254.276,-210.0,,
1254.291,-210.0,,
1254.306,-210.0,,
1254.321,-210.0,,
1254.336,-210.0,,
1254.351,-210.0,,
1254.366,-75.03,,
1254.381,-210.0,,
1254.396,-210.0,,
1254.411,-210.0,,
1254.426,-210.0,,
1254.441,-210.0,,
1254.456,-76.73,,
1254.471,-210.0,,
1254.486,-210.0,,
1254.501,-210.0,,
1254.516,-210.0,,
1254.531,-76.54,,
1254.546,-210.0,,
1254.561,-210.0,,
1254.576,-210.0,,
1254.591,-88.34,,
1254.606,-70.47,,
1254.621,-210.0,,
1254.636,-83.26,,
1254.651,-74.99,,
1254.666,-70.62,,
1254.681,-72.16,,
1254.696,-69.58,,
1254.711,-75.29,,
1254.726,-70.69,,
1254.741,-72.56,,
1254.756,-67.18,,
1254.771,-67.89,,
1254.786,-71.63,,
1254.801,-70.29,,
1254.816,-72.44,,
1254.831,-68.54,,
1254.846,-71.67,,
1254.861,-67.33,,
1254.876,-71.69,,
1254.891,-70.38,,
1254.906,-73.84,,
1254.921,-72.19,,
1254.936,-210.0,,
1254.951,-82.15,,
1254.966,-210.0,,
1254.981,-88.52,,
1254.996,-68.12,,
1255.011,-73.26,,
1255.026,-210.0,,
1255.041,-210.0,,
1255.056,-79.73,,
1255.071,-77.09,,
1255.086,-210.0,,
1255.101,-210.0,,
1255.116,-210.0,,
1255.131,-210.0,,
1255.146,-74.73,,
1255.161,-69.21,,
1255.176,-210.0,,
1255.191,-210.0,,
1255.206,-210.0,,
1255.221,-210.0,,
1255.236,-210.0,,
1255.251,-210.0,,
1255.266,-210.0,,
1255.281,-210.0,,
1255.296,-210.0,,
1255.311,-74.53,,
1255.326,-70.09,,
1255.341,-210.0,,
1255.356,-210.0,,
1255.371,-210.0,,
1255.386,-73.3,,
1255.401,-88.89,,
1255.416,-210.0,,
1255.431,-210.0,,
1255.446,-210.0,,
1255.461,-87.89,,
1255.476,-69.84,,
1255.491,-70.07,,
1255.506,-210.0,,
1255.521,-210.0,,
1255.536,-75.19,,
1255.551,-68.47,,
1255.566,-68.86,,
1255.581,-210.0,,
1255.596,-210.0,,
1255.611,-210.0,,
1255.626,-69.23,,
1255.641,-70.74,,
1255.656,-210.0,,
1255.671,-210.0,,
1255.686,-210.0,,
1255.701,-73.6,,
1255.716,-210.0,,
1255.731,-210.0,,
1255.746,-210.0,,
1255.761,-210.0,,
1255.776,-210.0,,
1255.791,-88.75,,
1255.806,-210.0,,
1255.821,-210.0,,
1255.836,-210.0,,
1255.851,-210.0,,
1255.866,-210.0,,
1255.881,-210.0,,
1255.896,-210.0,,
1255.911,-210.0,,
1255.926,-210.0,,
1255.941,-210.0,,
1255.956,-210.0,,
1255.971,-210.0,,
1255.986,-210.0,,
1256.001,-210.0,,
1256.016,-210.0,,
1256.031,-210.0,,
1256.046,-210.0,,
1256.061,-210.0,,
1256.076,-210.0,,
1256.091,-210.0,,
1256.106,-210.0,,
1256.121,-210.0,,
1256.136,-210.0,,
1256.151,-210.0,,
1256.166,-210.0,,
1256.181,-210.0,,
1256.196,-210.0,,
1256.211,-210.0,,
1256.226,-210.0,,
1256.241,-210.0,,
1256.256,-210.0,,
1256.271,-210.0,,
1256.286,-210.0,,
1256.301,-210.0,,
1256.316,-210.0,,
1256.331,-210.0,,
1256.346,-210.0,,
1256.361,-210.0,,
1256.376,-210.0,,
1256.391,-210.0,,
1256.406,-210.0,,
1256.421,-210.0,,
1256.436,-210.0,,
1256.451,-210.0,,
1256.466,-210.0,,
1256.481,-210.0,,
1256.496,-210.0,,
1256.511,-210.0,,
1256.526,-210.0,,
1256.541,-210.0,,
1256.556,-210.0,,
1256.571,-210.0,,
1256.586,-210.0,,
1256.601,-210.0,,
1256.616,-210.0,,
1256.631,-210.0,,
1256.646,-210.0,,
1256.661,-210.0,,
1256.676,-210.0,,
1256.691,-210.0,,
1256.706,-210.0,,
1256.721,-210.0,,
1256.736,-210.0,,
1256.751,-210.0,,
1256.766,-210.0,,
1256.781,-210.0,,
1256.796,-210.0,,
1256.811,-210.0,,
1256.826,-210.0,,
1256.841,-210.0,,
1256.856,-210.0,,
1256.871,-210.0,,
1256.886,-210.0,,
1256.901,-210.0,,
1256.916,-210.0,,
1256.931,-210.0,,
1256.946,-210.0,,
1256.961,-210.0,,
1256.976,-210.0,,
1256.991,-210.0,,
1257.006,-210.0,,
1257.021,-210.0,,
1257.036,-210.0,,
1257.051,-210.0,,
1257.066,-210.0,,
1257.081,-210.0,,
1257.096,-210.0,,
1257.111,-210.0,,
1257.126,-210.0,,
1257.141,-210.0,,
1257.156,-210.0,,
1257.171,-210.0,,
1257.186,-210.0,,
1257.201,-210.0,,
1257.216,-78.42,,
1257.231,-210.0,,
1257.246,-210.0,,
1257.261,-210.0,,
1257.276,-210.0,,
1257.291,-210.0,,
1257.306,-72.42,,
1257.321,-210.0,,
1257.336,-210.0,,
1257.351,-210.0,,
1257.366,-74.96,,
1257.381,-210.0,,
1257.396,-210.0,,
1257.411,-210.0,,
1257.426,-210.0,,
1257.441,-73.29,,
1257.456,-70.44,,
1257.471,-72.24,,
1257.486,-210.0,,
1257.501,-210.0,,
1257.516,-81.63,,
1257.531,-76.08,,
1257.546,-210.0,,
1257.561,-210.0,,
1257.576,-210.0,,
1257.591,-210.0,,
1257.606,-68.96,,
1257.621,-210.0,,
1257.636,-75.92,,
1257.651,-75.88,,
1257.666,-210.0,,
1257.681,-69.76,,
1257.696,-70.16,,
1257.711,-73.33,,
1257.726,-210.0,,
1257.741,-210.0,,
1257.756,-210.0,,
1257.771,-76.17,,
1257.786,-210.0,,
1257.801,-210.0,,
1257.816,-210.0,,
1257.831,-210.0,,
1257.846,-73.03,,
1257.861,-210.0,,
1257.876,-75.99,,
1257.891,-74.17,,
1257.906,-69.69,,
1257.921,-67.65,,
1257.936,-67.74,,
1257.951,-69.13,,
1257.966,-81.59,,
1257.981,-210.0,,
1257.996,-210.0,,
1258.011,-210.0,,
1258.026,-210.0,,
1258.041,-77.93,,
1258.056,-75.59,,
1258.071,-74.14,,
1258.086,-72.43,,
1258.101,-73.65,,
1258.116,-78.03,,
1258.131,-71.43,,
1258.146,-73.65,,
1258.161,-71.33,,
1258.176,-72.98,,
1258.191,-70.42,,
1258.206,-81.55,,
1258.221,-210.0,,
1258.236,-71.8,,
1258.251,-78.44,,
1258.266,-210.0,,
1258.281,-210.0,,
1258.296,-74.55,,
1258.311,-210.0,,
1258.326,-210.0,,
1258.341,-210.0,,
1258.356,-210.0,,
1258.371,-210.0,,
1258.386,-210.0,,
1258.401,-210.0,,
1258.416,-210.0,,
1258.431,-210.0,,
1258.446,-210.0,,
1258.461,-210.0,,
1258.476,-210.0,,
1258.491,-81.34,,
1258.506,-210.0,,
1258.521,-210.0,,
1258.536,-73.79,,
1258.551,-210.0,,
1258.566,-210.0,,
1258.581,-79.24,,
1258.596,-74.21,,
1258.611,-210.0,,
1258.626,-210.0,,
1258.641,-210.0,,
1258.656,-210.0,,
1258.671,-210.0,,
1258.686,-210.0,,
1258.701,-73.84,,
1258.716,-210.0,,
1258.731,-69.67,,
1258.746,-72.83,,
1258.761,-72.08,,
1258.776,-77.55,,
1258.791,-76.3,,
1258.806,-88.95,,
1258.821,-76.18,,
1258.836,-70.68,,
1258.851,-210.0,,
1258.866,-210.0,,
1258.881,-210.0,,
1258.896,-75.58,,
1258.911,-210.0,,
1258.926,-210.0,,
1258.941,-210.0,,
1258.956,-210.0,,
1258.971,-75.69,,
1258.986,-74.53,,
1259.001,-210.0,,
1259.016,-210.0,,
1259.031,-68.29,,
1259.046,-68.54,,
1259.061,-68.36,,
1259.076,-73.85,,
1259.091,-210.0,,
1259.106,-210.0,,
1259.121,-78.93,,
1259.136,-79.02,,
1259.151,-210.0,,
1259.166,-210.0,,
1259.181,-210.0,,
1259.196,-210.0,,
1259.211,-210.0,,
1259.226,-210.0,,
1259.241,-210.0,,
1259.256,-210.0,,
1259.271,-210.0,,
1259.286,-74.99,,
1259.301,-210.0,,
1259.316,-210.0,,
1259.331,-78.64,,
1259.346,-71.56,,
1259.361,-71.81,,
1259.376,-84.79,,
1259.391,-210.0,,
1259.406,-210.0,,
1259.421,-210.0,,
1259.436,-210.0,,
1259.451,-210.0,,
1259.466,-210.0,,
1259.481,-210.0,,
1259.496,-210.0,,
1259.511,-210.0,,
1259.526,-210.0,,
1259.541,-210.0,,
1259.556,-210.0,,
1259.571,-210.0,,
1259.586,-210.0,,
1259.601,-210.0,,
1259.616,-210.0,,
1259.631,-210.0,,
1259.646,-210.0,,
1259.661,-210.0,,
1259.676,-210.0,,
1259.691,-210.0,,
1259.706,-210.0,,
1259.721,-210.0,,
1259.736,-210.0,,
1259.751,-210.0,,
1259.766,-210.0,,
1259.781,-210.0,,
1259.796,-210.0,,
1259.811,-210.0,,
1259.826,-210.0,,
1259.841,-210.0,,
1259.856,-210.0,,
1259.871,-210.0,,
1259.886,-210.0,,
1259.901,-210.0,,
1259.916,-210.0,,
1259.931,-210.0,,
1259.946,-210.0,,
1259.961,-210.0,,
1259.976,-210.0,,
1259.991,-210.0,,
1260.006,-210.0,,
1260.021,-210.0,,
1260.036,-210.0,,
1260.051,-210.0,,
1260.066,-210.0,,
1260.081,-210.0,,
1260.096,-210.0,,
1260.111,-210.0,,
1260.126,-210.0,,
1260.141,-210.0,,
1260.156,-210.0,,
1260.171,-210.0,,
1260.186,-210.0,,
1260.201,-210.0,,
1260.216,-210.0,,
1260.231,-210.0,,
1260.246,-210.0,,
1260.261,-210.0,,
1260.276,-210.0,,
1260.291,-210.0,,
1260.306,-210.0,,
1260.321,-210.0,,
1260.336,-210.0,,
1260.351,-210.0,,
1260.366,-210.0,,
1260.381,-210.0,,
1260.396,-210.0,,
1260.411,-210.0,,
1260.426,-210.0,,
1260.441,-210.0,,
1260.456,-210.0,,
1260.471,-210.0,,
1260.486,-210.0,,
1260.501,-210.0,,
1260.516,-210.0,,
1260.531,-210.0,,
1260.546,-210.0,,
1260.561,-210.0,,
1260.576,-210.0,,
1260.591,-210.0,,
1260.606,-210.0,,
1260.621,-210.0,,
1260.636,-210.0,,
1260.651,-210.0,,
1260.666,-210.0,,
1260.681,-210.0,,
1260.696,-210.0,,
1260.711,-210.0,,
1260.726,-210.0,,
1260.741,-210.0,,
1260.756,-210.0,,
1260.771,-210.0,,
1260.786,-210.0,,
1260.801,-210.0,,
1260.816,-210.0,,
1260.831,-210.0,,
1260.846,-210.0,,
1260.861,-210.0,,
1260.876,-210.0,,
1260.891,-210.0,,
1260.906,-210.0,,
1260.921,-210.0,,
1260.936,-210.0,,
1260.951,-210.0,,
1260.966,-210.0,,
1260.981,-210.0,,
1260.996,-210.0,,
1261.011,-210.0,,
1261.026,-210.0,,
1261.041,-210.0,,
1261.056,-210.0,,
1261.071,-210.0,,
1261.086,-210.0,,
1261.101,-210.0,,
1261.116,-210.0,,
1261.131,-210.0,,
1261.146,-210.0,,
1261.161,-210.0,,
1261.176,-210.0,,
1261.191,-210.0,,
1261.206,-210.0,,
1261.221,-210.0,,
1261.236,-210.0,,
1261.251,-210.0,,
1261.266,-210.0,,
1261.281,-210.0,,
1261.297,-210.0,,
1261.312,-210.0,,
1261.326,-210.0,,
1261.341,-210.0,,
1261.356,-210.0,,
1261.371,-210.0,,
1261.386,-210.0,,
1261.401,-210.0,,
1261.417,-210.0,,
1261.432,-210.0,,
1261.447,-210.0,,
1261.461,-210.0,,
1261.476,-210.0,,
1261.491,-73.08,,
1261.506,-66.58,,
1261.521,-67.76,,
1261.536,-210.0,,
1261.552,-210.0,,
1261.567,-73.05,,
1261.582,-67.54,,
1261.597,-71.61,,
1261.611,-210.0,,
1261.626,-210.0,,
1261.641,-210.0,,
1261.656,-210.0,,
1261.672,-210.0,,
1261.687,-210.0,,
1261.702,-210.0,,
1261.717,-210.0,,
1261.732,-210.0,,
1261.746,-72.74,,
1261.761,-210.0,,
1261.776,-210.0,,
1261.792,-210.0,,
1261.807,-71.01,,
1261.822,-67.96,,
1261.837,-78.99,,
1261.852,-210.0,,
1261.867,-210.0,,
1261.882,-210.0,,
1261.896,-210.0,,
1261.911,-210.0,,
1261.927,-210.0,,
1261.942,-210.0,,
1261.957,-210.0,,
1261.972,-210.0,,
1261.987,-210.0,,
1262.002,-210.0,,
1262.017,-210.0,,
1262.031,-210.0,,
1262.047,-79.64,,
1262.062,-81.82,,
1262.077,-210.0,,
1262.092,-210.0,,
1262.107,-210.0,,
1262.122,-68.06,,
1262.137,-69.36,,
1262.152,-210.0,,
1262.167,-210.0,,
1262.182,-210.0,,
1262.197,-69.9,,
1262.212,-80.13,,
1262.227,-210.0,,
1262.242,-210.0,,
1262.257,-70.9,,
1262.272,-68.29,,
1262.287,-68.36,,
1262.302,-69.73,,
1262.317,-210.0,,
1262.332,-69.71,,
1262.347,-69.04,,
1262.362,-69.67,,
1262.377,-85.37,,
1262.392,-210.0,,
1262.407,-210.0,,
1262.422,-71.8,,
1262.437,-83.18,,
1262.452,-210.0,,
1262.467,-210.0,,
1262.482,-210.0,,
1262.497,-210.0,,
1262.512,-210.0,,
1262.527,-210.0,,
1262.542,-210.0,,
1262.557,-210.0,,
1262.572,-210.0,,
1262.587,-210.0,,
1262.602,-210.0,,
1262.617,-210.0,,
1262.632,-210.0,,
1262.647,-71.24,,
1262.662,-72.6,,
1262.677,-71.36,,
1262.692,-210.0,,
1262.707,-72.82,,
1262.722,-73.58,,
1262.737,-70.69,,
1262.752,-70.68,,
1262.767,-210.0,,
1262.782,-210.0,,
1262.797,-210.0,,
1262.812,-71.02,,
1262.827,-81.5,,
1262.842,-210.0,,
1262.857,-210.0,,
1262.872,-70.16,,
1262.887,-69.19,,
1262.902,-210.0,,
1262.917,-210.0,,
1262.932,-210.0,,
1262.947,-71.33,,
1262.962,-72.2,,
1262.977,-70.3,,
1262.992,-210.0,,
1263.007,-210.0,,
1263.022,-72.71,,
1263.037,-73.63,,
1263.052,-72.01,,
1263.067,-210.0,,
1263.082,-210.0,,
1263.097,-74.95,,
1263.112,-68.58,,
1263.127,-70.66,,
1263.142,-210.0,,
1263.157,-75.88,,
1263.172,-210.0,,
1263.187,-69.58,,
1263.202,-74.23,,
1263.217,-210.0,,
1263.232,-210.0,,
1263.247,-210.0,,
1263.262,-78.94,,
1263.277,-210.0,,
1263.292,-210.0,,
1263.307,-210.0,,
1263.322,-210.0,,
1263.337,-210.0,,
1263.352,-210.0,,
1263.367,-210.0,,
1263.382,-210.0,,
1263.397,-210.0,,
1263.412,-83.42,,
1263.427,-210.0,,
1263.442,-73.75,,
1263.457,-77.6,,
1263.472,-73.96,,
1263.487,-70.46,,
1263.502,-69.27,,
1263.517,-69.81,,
1263.532,-210.0,,
1263.547,-210.0,,
1263.562,-210.0,,
1263.577,-210.0,,
1263.592,-210.0,,
1263.607,-210.0,,
1263.622,-210.0,,
1263.637,-210.0,,
1263.652,-210.0,,
1263.667,-210.0,,
1263.682,-210.0,,
1263.697,-210.0,,
1263.712,-210.0,,
1263.727,-210.0,,
1263.742,-210.0,,
1263.757,-210.0,,
1263.772,-210.0,,
1263.787,-210.0,,
1263.802,-210.0,,
1263.817,-210.0,,
1263.832,-210.0,,
1263.847,-210.0,,
1263.862,-210.0,,
1263.877,-210.0,,
1263.892,-210.0,,
1263.907,-210.0,,
1263.922,-210.0,,
1263.937,-210.0,,
1263.952,-210.0,,
1263.967,-210.0,,
1263.982,-210.0,,
1263.997,-210.0,,
1264.012,-210.0,,
1264.027,-210.0,,
1264.042,-210.0,,
1264.057,-210.0,,
1264.072,-210.0,,
1264.087,-210.0,,
1264.102,-210.0,,
1264.117,-210.0,,
1264.132,-210.0,,
1264.147,-210.0,,
1264.162,-210.0,,
1264.177,-210.0,,
1264.192,-210.0,,
1264.207,-210.0,,
1264.222,-210.0,,
1264.237,-210.0,,
1264.252,-78.63,,
1264.267,-77.99,,
1264.282,-78.08,,
1264.297,-210.0,,
1264.312,-210.0,,
1264.327,-210.0,,
1264.342,-210.0,,
1264.357,-210.0,,
1264.372,-210.0,,
1264.387,-210.0,,
1264.402,-210.0,,
1264.417,-210.0,,
1264.432,-210.0,,
1264.447,-210.0,,
1264.462,-210.0,,
1264.477,-210.0,,
1264.492,-210.0,,
1264.507,-210.0,,
1264.522,-210.0,,
1264.537,-210.0,,
1264.552,-210.0,,
1264.567,-75.63,,
1264.582,-74.97,,
1264.597,-210.0,,
1264.612,-210.0,,
1264.627,-69.2,,
1264.642,-67.92,,
1264.657,-73.6,,
1264.672,-74.32,,
1264.687,-210.0,,
1264.702,-71.71,,
1264.717,-69.26,,
1264.732,-69.47,,
1264.747,-210.0,,
1264.762,-210.0,,
1264.777,-210.0,,
1264.792,-76.76,,
1264.807,-72.14,,
1264.822,-210.0,,
1264.837,-210.0,,
1264.852,-210.0,,
1264.867,-82.36,,
1264.882,-210.0,,
1264.897,-210.0,,
1264.912,-210.0,,
1264.927,-210.0,,
1264.942,-210.0,,
1264.957,-73.23,,
1264.972,-210.0,,
1264.987,-210.0,,
1265.002,-210.0,,
1265.017,-69.37,,
1265.032,-68.35,,
1265.047,-210.0,,
1265.062,-210.0,,
1265.077,-210.0,,
1265.092,-69.02,,
1265.107,-69.77,,
1265.122,-210.0,,
1265.137,-210.0,,
1265.152,-210.0,,
1265.167,-70.25,,
1265.182,-210.0,,
1265.197,-210.0,,
1265.212,-210.0,,
1265.227,-210.0,,
1265.242,-210.0,,
1265.257,-210.0,,
1265.272,-210.0,,
1265.287,-210.0,,
1265.302,-210.0,,
1265.317,-210.0,,
1265.332,-210.0,,
1265.347,-210.0,,
1265.362,-210.0,,
1265.377,-210.0,,
1265.392,-210.0,,
1265.407,-210.0,,
1265.422,-210.0,,
1265.437,-210.0,,
1265.452,-210.0,,
1265.467,-210.0,,
1265.482,-210.0,,
1265.497,-210.0,,
1265.512,-210.0,,
1265.527,-210.0,,
1265.542,-210.0,,
1265.557,-210.0,,
1265.572,-210.0,,
1265.587,-210.0,,
1265.602,-210.0,,
1265.617,-210.0,,
1265.632,-210.0,,
1265.647,-210.0,,
1265.662,-210.0,,
1265.677,-210.0,,
1265.692,-210.0,,
1265.707,-210.0,,
1265.722,-210.0,,
1265.737,-210.0,,
1265.752,-210.0,,
1265.767,-210.0,,
1265.782,-210.0,,
1265.797,-210.0,,
1265.812,-210.0,,
1265.827,-210.0,,
1265.842,-69.4,,
1265.857,-69.2,,
1265.872,-80.75,,
1265.887,-210.0,,
1265.902,-210.0,,
1265.917,-71.51,,
1265.932,-70.23,,
1265.947,-76.87,,
1265.962,-210.0,,
1265.977,-210.0,,
1265.992,-210.0,,
1266.007,-210.0,,
1266.022,-210.0,,
1266.037,-210.0,,
1266.052,-210.0,,
1266.067,-210.0,,
1266.082,-210.0,,
1266.097,-210.0,,
1266.112,-210.0,,
1266.127,-210.0,,
1266.142,-210.0,,
1266.157,-210.0,,
1266.172,-210.0,,
1266.187,-210.0,,
1266.202,-210.0,,
1266.217,-210.0,,
1266.232,-210.0,,
1266.247,-210.0,,
1266.262,-210.0,,
1266.277,-210.0,,
1266.292,-210.0,,
1266.307,-79.15,,
1266.322,-87.44,,
1266.337,-210.0,,
1266.352,-210.0,,
1266.367,-210.0,,
1266.382,-69.15,,
1266.397,-71.47,,
1266.412,-210.0,,
1266.427,-210.0,,
1266.442,-210.0,,
1266.457,-210.0,,
1266.472,-75.33,,
1266.487,-210.0,,
1266.502,-210.0,,
1266.517,-210.0,,
1266.532,-210.0,,
1266.547,-210.0,,
1266.562,-210.0,,
1266.577,-210.0,,
1266.592,-210.0,,
1266.607,-210.0,,
1266.622,-210.0,,
1266.637,-210.0,,
1266.652,-210.0,,
1266.667,-210.0,,
1266.682,-210.0,,
1266.697,-210.0,,
1266.712,-210.0,,
1266.727,-210.0,,
1266.742,-210.0,,
1266.757,-210.0,,
1266.772,-210.0,,
1266.787,-210.0,,
1266.802,-210.0,,
1266.817,-210.0,,
1266.832,-210.0,,
1266.847,-210.0,,
1266.862,-210.0,,
1266.877,-210.0,,
1266.892,-210.0,,
1266.907,-210.0,,
1266.922,-210.0,,
1266.937,-210.0,,
1266.952,-210.0,,
1266.967,-210.0,,
1266.982,-70.83,,
1266.997,-73.85,,
1267.012,-210.0,,
1267.027,-210.0,,
1267.042,-76.36,,
1267.057,-67.72,,
1267.072,-77.71,,
1267.087,-210.0,,
1267.102,-210.0,,
1267.117,-81.29,,
1267.132,-67.27,,
1267.147,-69.31,,
1267.162,-72.74,,
1267.177,-210.0,,
1267.192,-210.0,,
1267.207,-70.01,,
1267.222,-210.0,,
1267.237,-76.16,,
1267.252,-210.0,,
1267.267,-69.6,,
1267.282,-68.03,,
1267.297,-74.71,,
1267.312,-210.0,,
1267.327,-210.0,,
1267.342,-77.84,,
1267.357,-210.0,,
1267.372,-81.86,,
1267.387,-210.0,,
1267.402,-210.0,,
1267.417,-80.32,,
1267.432,-210.0,,
1267.447,-210.0,,
1267.462,-210.0,,
1267.477,-210.0,,
1267.492,-210.0,,
1267.507,-210.0,,
1267.522,-210.0,,
1267.537,-210.0,,
1267.552,-210.0,,
1267.567,-210.0,,
1267.582,-210.0,,
1267.597,-210.0,,
1267.612,-210.0,,
1267.627,-210.0,,
1267.642,-210.0,,
1267.657,-74.86,,
1267.672,-210.0,,
1267.687,-210.0,,
1267.702,-210.0,,
1267.717,-210.0,,
1267.732,-210.0,,
1267.747,-210.0,,
1267.762,-210.0,,
1267.777,-210.0,,
1267.792,-210.0,,
1267.807,-210.0,,
1267.822,-210.0,,
1267.837,-210.0,,
1267.852,-210.0,,
1267.867,-210.0,,
1267.882,-210.0,,
1267.897,-210.0,,
1267.912,-210.0,,
1267.927,-210.0,,
1267.942,-210.0,,
1267.957,-210.0,,
1267.972,-210.0,,
1267.987,-210.0,,
1268.002,-210.0,,
1268.017,-210.0,,
1268.032,-210.0,,
1268.047,-210.0,,
1268.062,-210.0,,
1268.077,-210.0,,
1268.092,-210.0,,
1268.107,-210.0,,
1268.122,-210.0,,
1268.137,-210.0,,
1268.152,-210.0,,
1268.167,-210.0,,
1268.182,-210.0,,
1268.197,-210.0,,
1268.212,-210.0,,
1268.227,-210.0,,
1268.242,-210.0,,
1268.257,-210.0,,
1268.272,-210.0,,
1268.287,-210.0,,
1268.302,-210.0,,
1268.317,-210.0,,
1268.332,-210.0,,
1268.347,-210.0,,
1268.362,-210.0,,
1268.377,-210.0,,
1268.392,-210.0,,
1268.407,-210.0,,
1268.422,-210.0,,
1268.437,-210.0,,
1268.452,-210.0,,
1268.467,-210.0,,
1268.482,-210.0,,
1268.497,-210.0,,
1268.512,-210.0,,
1268.527,-210.0,,
1268.542,-210.0,,
1268.557,-210.0,,
1268.572,-210.0,,
1268.587,-210.0,,
1268.602,-210.0,,
1268.617,-210.0,,
1268.632,-210.0,,
1268.647,-210.0,,
1268.662,-210.0,,
1268.677,-210.0,,
1268.692,-210.0,,
1268.707,-210.0,,
1268.722,-210.0,,
1268.737,-210.0,,
1268.752,-78.95,,
1268.767,-210.0,,
1268.782,-210.0,,
1268.797,-210.0,,
1268.812,-210.0,,
1268.827,-210.0,,
1268.842,-210.0,,
1268.857,-210.0,,
1268.872,-210.0,,
1268.887,-210.0,,
1268.902,-210.0,,
1268.917,-210.0,,
1268.932,-210.0,,
1268.947,-210.0,,
1268.962,-210.0,,
1268.977,-210.0,,
1268.992,-210.0,,
1269.007,-210.0,,
1269.022,-210.0,,
1269.037,-210.0,,
1269.052,-210.0,,
1269.067,-210.0,,
1269.082,-210.0,,
1269.097,-210.0,,
1269.112,-210.0,,
1269.127,-210.0,,
1269.142,-210.0,,
1269.157,-210.0,,
1269.172,-210.0,,
1269.188,-210.0,,
1269.202,-210.0,,
1269.217,-210.0,,
1269.232,-210.0,,
1269.247,-210.0,,
1269.262,-210.0,,
1269.277,-210.0,,
1269.292,-210.0,,
1269.307,-210.0,,
1269.323,-210.0,,
1269.338,-210.0,,
1269.352,-210.0,,
1269.367,-210.0,,
1269.382,-210.0,,
1269.397,-210.0,,
1269.412,-210.0,,
1269.427,-210.0,,
1269.443,-210.0,,
1269.458,-210.0,,
1269.473,-210.0,,
1269.487,-210.0,,
1269.502,-210.0,,
1269.517,-210.0,,
1269.532,-210.0,,
1269.547,-210.0,,
1269.563,-210.0,,
1269.578,-210.0,,
1269.593,-210.0,,
1269.608,-210.0,,
1269.623,-210.0,,
1269.637,-210.0,,
1269.652,-210.0,,
1269.667,-210.0,,
1269.682,-210.0,,
1269.698,-210.0,,
1269.713,-210.0,,
1269.728,-210.0,,
1269.743,-210.0,,
1269.758,-210.0,,
1269.772,-210.0,,
1269.787,-210.0,,
1269.802,-210.0,,
1269.818,-210.0,,
1269.833,-210.0,,
1269.848,-210.0,,
1269.863,-210.0,,
1269.878,-210.0,,
1269.893,-210.0,,
1269.908,-210.0,,
1269.922,-210.0,,
1269.938,-210.0,,
1269.953,-210.0,,
1269.968,-210.0,,
1269.983,-210.0,,
1269.998,-210.0,,
1270.013,-210.0,,
1270.028,-210.0,,
1270.043,-210.0,,
1270.058,-210.0,,
1270.073,-210.0,,
1270.088,-210.0,,
1270.103,-210.0,,
1270.118,-210.0,,
1270.133,-210.0,,
1270.148,-210.0,,
1270.163,-210.0,,
1270.178,-210.0,,
1270.193,-210.0,,
1270.208,-210.0,,
1270.223,-210.0,,
1270.238,-210.0,,
1270.253,-210.0,,
1270.268,-210.0,,
1270.283,-210.0,,
1270.298,-210.0,,
1270.313,-210.0,,
1270.328,-210.0,,
1270.343,-210.0,,
1270.358,-210.0,,
1270.373,-210.0,,
1270.388,-210.0,,
1270.403,-210.0,,
1270.418,-210.0,,
1270.433,-210.0,,
1270.448,-210.0,,
1270.463,-210.0,,
1270.478,-210.0,,
1270.493,-210.0,,
1270.508,-210.0,,
1270.523,-210.0,,
1270.538,-210.0,,
1270.553,-210.0,,
1270.568,-210.0,,
1270.583,-210.0,,
1270.598,-210.0,,
1270.613,-210.0,,
1270.628,-210.0,,
1270.643,-210.0,,
1270.658,-210.0,,
1270.673,-210.0,,
1270.688,-210.0,,
1270.703,-210.0,,
1270.718,-210.0,,
1270.733,-210.0,,
1270.748,-210.0,,
1270.763,-210.0,,
1270.778,-210.0,,
1270.793,-210.0,,
1270.808,-210.0,,
1270.823,-210.0,,
1270.838,-210.0,,
1270.853,-210.0,,
1270.868,-210.0,,
1270.883,-210.0,,
1270.898,-210.0,,
1270.913,-210.0,,
1270.928,-210.0,,
1270.943,-210.0,,
1270.958,-210.0,,
1270.973,-210.0,,
1270.988,-210.0,,
1271.003,-210.0,,
1271.018,-210.0,,
1271.033,-210.0,,
1271.048,-210.0,,
1271.063,-210.0,,
1271.078,-210.0,,
1271.093,-74.73,,
1271.108,-210.0,,
1271.123,-210.0,,
1271.138,-210.0,,
1271.153,-210.0,,
1271.168,-210.0,,
1271.183,-210.0,,
1271.198,-81.77,,
1271.213,-210.0,,
1271.228,-210.0,,
1271.243,-79.92,,
1271.258,-72.69,,
1271.273,-210.0,,
1271.288,-210.0,,
1271.303,-210.0,,
1271.318,-71.97,,
1271.333,-70.24,,
1271.348,-72.06,,
1271.363,-210.0,,
1271.378,-71.7,,
1271.393,-77.98,,
1271.408,-68.8,,
1271.423,-82.08,,
1271.438,-210.0,,
1271.453,-69.16,,
1271.468,-70.55,,
1271.483,-67.81,,
1271.498,-71.33,,
1271.513,-69.63,,
1271.528,-210.0,,
1271.543,-210.0,,
1271.558,-210.0,,
1271.573,-210.0,,
1271.588,-210.0,,
1271.603,-210.0,,
1271.618,-210.0,,
1271.633,-210.0,,
1271.648,-210.0,,
1271.663,-210.0,,
1271.678,-210.0,,
1271.693,-210.0,,
1271.708,-210.0,,
1271.723,-210.0,,
1271.738,-210.0,,
1271.753,-210.0,,
1271.768,-210.0,,
1271.783,-210.0,,
1271.798,-210.0,,
1271.813,-210.0,,
1271.828,-210.0,,
1271.843,-210.0,,
1271.858,-210.0,,
1271.873,-210.0,,
1271.888,-210.0,,
1271.903,-210.0,,
1271.918,-210.0,,
1271.933,-210.0,,
1271.948,-210.0,,
1271.963,-210.0,,
1271.978,-210.0,,
1271.993,-210.0,,
1272.008,-210.0,,
1272.023,-210.0,,
1272.038,-210.0,,
1272.053,-210.0,,
1272.068,-210.0,,
1272.083,-210.0,,
1272.098,-210.0,,
1272.113,-210.0,,
1272.128,-210.0,,
1272.143,-210.0,,
1272.158,-210.0,,
1272.173,-210.0,,
1272.188,-210.0,,
1272.203,-210.0,,
1272.218,-210.0,,
1272.233,-210.0,,
1272.248,-210.0,,
1272.263,-210.0,,
1272.278,-210.0,,
1272.293,-210.0,,
1272.308,-210.0,,
1272.323,-210.0,,
1272.338,-210.0,,
1272.353,-210.0,,
1272.368,-210.0,,
1272.383,-210.0,,
1272.398,-210.0,,
1272.413,-210.0,,
1272.428,-210.0,,
1272.443,-210.0,,
1272.458,-210.0,,
1272.473,-210.0,,
1272.488,-210.0,,
1272.503,-210.0,,
1272.518,-210.0,,
1272.533,-210.0,,
1272.548,-210.0,,
1272.563,-210.0,,
1272.578,-210.0,,
1272.593,-210.0,,
1272.608,-210.0,,
1272.623,-210.0,,
1272.638,-210.0,,
1272.653,-210.0,,
1272.668,-210.0,,
1272.683,-210.0,,
1272.698,-210.0,,
1272.713,-210.0,,
1272.728,-210.0,,
1272.743,-210.0,,
1272.758,-210.0,,
1272.773,-210.0,,
1272.788,-210.0,,
1272.803,-210.0,,
1272.818,-210.0,,
1272.833,-210.0,,
1272.848,-210.0,,
1272.863,-210.0,,
1272.878,-210.0,,
1272.893,-210.0,,
1272.908,-210.0,,
1272.923,-210.0,,
1272.938,-210.0,,
1272.953,-210.0,,
1272.968,-210.0,,
1272.983,-210.0,,
1272.998,-210.0,,
1273.013,-210.0,,
1273.028,-210.0,,
1273.043,-210.0,,
1273.058,-210.0,,
1273.073,-210.0,,
1273.088,-210.0,,
1273.103,-210.0,,
1273.118,-210.0,,
1273.133,-210.0,,
1273.148,-210.0,,
1273.163,-210.0,,
1273.178,-210.0,,
1273.193,-210.0,,
1273.208,-210.0,,
1273.223,-210.0,,
1273.238,-210.0,,
1273.253,-210.0,,
1273.268,-210.0,,
1273.283,-210.0,,
1273.298,-210.0,,
1273.313,-210.0,,
1273.328,-210.0,,
1273.343,-210.0,,
1273.358,-210.0,,
1273.373,-210.0,,
1273.388,-210.0,,
1273.403,-210.0,,
1273.418,-210.0,,
1273.433,-210.0,,
1273.448,-210.0,,
1273.463,-210.0,,
1273.478,-210.0,,
1273.493,-210.0,,
1273.508,-210.0,,
1273.523,-210.0,,
1273.538,-210.0,,
1273.553,-210.0,,
1273.568,-210.0,,
1273.583,-210.0,,
1273.598,-210.0,,
1273.613,-210.0,,
1273.628,-210.0,,
1273.643,-210.0,,
1273.658,-210.0,,
1273.673,-210.0,,
1273.688,-210.0,,
1273.703,-210.0,,
1273.718,-210.0,,
1273.733,-210.0,,
1273.748,-210.0,,
1273.763,-210.0,,
1273.778,-210.0,,
1273.793,-210.0,,
1273.808,-210.0,,
1273.823,-210.0,,
1273.838,-210.0,,
1273.853,-71.2,,
1273.868,-210.0,,
1273.883,-70.45,,
1273.898,-79.58,,
1273.913,-73.77,,
1273.928,-69.18,,
1273.943,-80.97,,
1273.958,-70.63,,
1273.973,-69.7,,
1273.988,-68.99,,
1274.003,-68.68,,
1274.018,-68.78,,
1274.033,-66.13,,
1274.048,-65.48,,
1274.063,-65.24,,
1274.078,-66.29,,
1274.093,-64.83,,
1274.108,-64.02,,
1274.123,-64.22,,
1274.138,-63.61,,
1274.153,-64.08,,
1274.168,-63.29,,
1274.183,-62.91,,
1274.198,-63.34,,
1274.213,-63.45,,
1274.228,-64.27,,
1274.243,-62.67,,
1274.258,-63.18,,
1274.273,-62.96,,
1274.288,-62.15,,
1274.303,-62.74,,
1274.318,-61.98,,
1274.333,-62.14,,
1274.348,-61.94,,
1274.363,-61.65,,
1274.378,-61.98,,
1274.393,-61.51,,
1274.408,-61.44,,
1274.423,-61.56,,
1274.438,-61.82,,
1274.453,-62.08,,
1274.468,-61.68,,
1274.483,-61.94,,
1274.498,-61.84,,
1274.513,-61.96,,
1274.528,-61.97,,
1274.543,-61.87,,
1274.558,-61.96,,
1274.573,-61.46,,
1274.588,-61.58,,
1274.603,-61.57,,
1274.618,-61.92,,
1274.633,-61.46,,
1274.648,-60.74,,
1274.663,-61.26,,
1274.678,-61.26,,
1274.693,-61.28,,
1274.708,-61.14,,
1274.723,-60.77,,
1274.738,-61.23,,
1274.753,-60.96,,
1274.768,-61.26,,
1274.783,-61.17,,
1274.798,-61.02,,
1274.813,-61.61,,
1274.828,-61.3,,
1274.843,-61.43,,
1274.858,-61.45,,
1274.873,-60.99,,
1274.888,-61.72,,
1274.903,-60.99,,
1274.918,-61.15,,
1274.933,-60.81,,
1274.948,-60.76,,
1274.963,-61.11,,
1274.978,-60.75,,
1274.993,-61.3,,
1275.008,-60.78,,
1275.023,-60.82,,
1275.038,-61.03,,
1275.053,-61.22,,
1275.068,-61.4,,
1275.083,-60.8,,
1275.098,-61.18,,
1275.113,-61.41,,
1275.128,-61.28,,
1275.143,-61.16,,
1275.158,-60.81,,
1275.173,-61.02,,
1275.188,-61.16,,
1275.203,-61.37,,
1275.218,-60.95,,
1275.233,-60.15,,
1275.248,-60.77,,
1275.263,-60.68,,
1275.278,-60.76,,
1275.293,-60.42,,
1275.308,-59.96,,
1275.323,-60.49,,
1275.338,-60.26,,
1275.353,-60.27,,
1275.368,-59.74,,
1275.383,-59.7,,
1275.398,-60.13,,
1275.413,-60.18,,
1275.428,-60.42,,
1275.443,-59.62,,
1275.458,-59.82,,
1275.473,-60.16,,
1275.488,-60.3,,
1275.503,-60.33,,
1275.518,-59.88,,
1275.533,-60.25,,
1275.548,-60.45,,
1275.563,-60.58,,
1275.578,-60.57,,
1275.593,-60.19,,
1275.608,-60.91,,
1275.623,-60.64,,
1275.638,-60.85,,
1275.653,-61.29,,
1275.668,-60.52,,
1275.683,-61.16,,
1275.698,-61.28,,
1275.713,-61.65,,
1275.728,-61.3,,
1275.743,-61.02,,
1275.758,-61.8,,
1275.773,-61.24,,
1275.788,-61.37,,
1275.803,-60.99,,
1275.818,-60.81,,
1275.833,-61.31,,
1275.848,-61.31,,
1275.863,-61.76,,
1275.878,-61.34,,
1275.893,-61.52,,
1275.908,-62.06,,
1275.923,-61.68,,
1275.938,-61.87,,
1275.953,-61.47,,
1275.968,-61.79,,
1275.983,-62.16,,
1275.998,-61.39,,
1276.013,-62.06,,
1276.028,-61.46,,
1276.043,-62.0,,
1276.058,-61.89,,
1276.073,-61.92,,
1276.088,-62.7,,
1276.103,-61.8,,
1276.118,-61.98,,
1276.133,-62.09,,
1276.148,-63.2,,
1276.163,-64.88,,
1276.178,-63.49,,
1276.193,-64.31,,
1276.208,-63.35,,
1276.223,-63.84,,
1276.238,-66.88,,
1276.253,-67.27,,
1276.268,-66.17,,
1276.283,-65.5,,
1276.298,-67.28,,
1276.313,-73.43,,
1276.328,-71.81,,
1276.343,-72.68,,
1276.358,-72.05,,
1276.373,-210.0,,
1276.388,-210.0,,
1276.403,-210.0,,
1276.418,-210.0,,
1276.433,-210.0,,
1276.448,-210.0,,
1276.463,-210.0,,
1276.478,-210.0,,
1276.493,-210.0,,
1276.508,-210.0,,
1276.523,-210.0,,
1276.538,-210.0,,
1276.553,-210.0,,
1276.568,-210.0,,
1276.583,-210.0,,
1276.598,-210.0,,
1276.613,-210.0,,
1276.628,-210.0,,
1276.643,-210.0,,
1276.658,-210.0,,
1276.673,-210.0,,
1276.688,-210.0,,
1276.703,-210.0,,
1276.718,-210.0,,
1276.733,-210.0,,
1276.748,-210.0,,
1276.763,-210.0,,
1276.778,-210.0,,
1276.793,-210.0,,
1276.808,-210.0,,
1276.823,-210.0,,
1276.838,-210.0,,
1276.853,-210.0,,
1276.868,-210.0,,
1276.883,-210.0,,
1276.898,-210.0,,
1276.913,-210.0,,
1276.928,-210.0,,
1276.943,-210.0,,
1276.958,-210.0,,
1276.973,-210.0,,
1276.988,-210.0,,
1277.003,-210.0,,
1277.018,-210.0,,
1277.033,-210.0,,
1277.048,-210.0,,
1277.063,-210.0,,
1277.078,-210.0,,
1277.093,-210.0,,
1277.108,-210.0,,
1277.123,-210.0,,
1277.138,-210.0,,
1277.153,-210.0,,
1277.168,-210.0,,
1277.183,-210.0,,
1277.198,-210.0,,
1277.214,-210.0,,
1277.228,-210.0,,
1277.243,-210.0,,
1277.258,-210.0,,
1277.273,-210.0,,
1277.288,-210.0,,
1277.303,-210.0,,
1277.318,-210.0,,
1277.333,-210.0,,
1277.349,-83.95,,
1277.364,-210.0,,
1277.378,-210.0,,
1277.393,-210.0,,
1277.408,-210.0,,
1277.423,-210.0,,
1277.438,-210.0,,
1277.453,-210.0,,
1277.469,-210.0,,
1277.484,-71.26,,
1277.499,-69.74,,
1277.514,-77.65,,
1277.528,-72.35,,
1277.543,-66.88,,
1277.558,-65.88,,
1277.573,-66.78,,
1277.589,-70.28,,
1277.604,-66.62,,
1277.619,-65.74,,
1277.634,-66.11,,
1277.649,-67.8,,
1277.663,-69.98,,
1277.678,-65.81,,
1277.693,-65.0,,
1277.708,-66.97,,
1277.724,-79.56,,
1277.739,-210.0,,
1277.754,-69.75,,
1277.769,-69.25,,
1277.784,-210.0,,
1277.799,-210.0,,
1277.813,-210.0,,
1277.828,-80.24,,
1277.844,-210.0,,
1277.859,-210.0,,
1277.874,-210.0,,
1277.889,-210.0,,
1277.904,-210.0,,
1277.919,-210.0,,
1277.934,-210.0,,
1277.948,-210.0,,
1277.964,-210.0,,
1277.979,-210.0,,
1277.994,-210.0,,
1278.009,-210.0,,
1278.024,-210.0,,
1278.039,-210.0,,
1278.054,-210.0,,
1278.069,-210.0,,
1278.084,-210.0,,
1278.099,-210.0,,
1278.114,-73.02,,
1278.129,-71.82,,
1278.144,-210.0,,
1278.159,-210.0,,
1278.174,-73.37,,
1278.189,-68.23,,
1278.204,-66.93,,
1278.219,-69.63,,
1278.234,-69.77,,
1278.249,-68.02,,
1278.264,-66.88,,
1278.279,-68.23,,
1278.294,-69.2,,
1278.309,-68.44,,
1278.324,-67.41,,
1278.339,-66.64,,
1278.354,-77.85,,
1278.369,-72.94,,
1278.384,-68.57,,
1278.399,-67.46,,
1278.414,-67.89,,
1278.429,-79.82,,
1278.444,-210.0,,
1278.459,-71.8,,
1278.474,-71.33,,
1278.489,-76.18,,
1278.504,-210.0,,
1278.519,-210.0,,
1278.534,-210.0,,
1278.549,-210.0,,
1278.564,-210.0,,
1278.579,-210.0,,
1278.594,-210.0,,
1278.609,-210.0,,
1278.624,-210.0,,
1278.639,-210.0,,
1278.654,-210.0,,
1278.669,-210.0,,
1278.684,-210.0,,
1278.699,-210.0,,
1278.714,-210.0,,
1278.729,-210.0,,
1278.744,-210.0,,
1278.759,-210.0,,
1278.774,-210.0,,
1278.789,-210.0,,
1278.804,-210.0,,
1278.819,-70.26,,
1278.834,-68.2,,
1278.849,-70.0,,
1278.864,-74.83,,
1278.879,-68.41,,
1278.894,-65.95,,
1278.909,-68.97,,
1278.924,-74.29,,
1278.939,-71.15,,
1278.954,-69.03,,
1278.969,-65.97,,
1278.984,-71.19,,
1278.999,-210.0,,
1279.014,-210.0,,
1279.029,-70.3,,
1279.044,-70.06,,
1279.059,-210.0,,
1279.074,-210.0,,
1279.089,-210.0,,
1279.104,-210.0,,
1279.119,-210.0,,
1279.134,-210.0,,
1279.149,-210.0,,
1279.164,-210.0,,
1279.179,-210.0,,
1279.194,-210.0,,
1279.209,-210.0,,
1279.224,-210.0,,
1279.239,-210.0,,
1279.254,-210.0,,
1279.269,-210.0,,
1279.284,-210.0,,
1279.299,-210.0,,
1279.314,-210.0,,
1279.329,-210.0,,
1279.344,-210.0,,
1279.359,-210.0,,
1279.374,-210.0,,
1279.389,-210.0,,
1279.404,-210.0,,
1279.419,-210.0,,
1279.434,-210.0,,
1279.449,-210.0,,
1279.464,-210.0,,
1279.479,-210.0,,
1279.494,-210.0,,
1279.509,-210.0,,
1279.524,-71.02,,
1279.539,-72.79,,
1279.554,-74.33,,
1279.569,-210.0,,
1279.584,-70.53,,
1279.599,-69.63,,
1279.614,-210.0,,
1279.629,-210.0,,
1279.644,-210.0,,
1279.659,-210.0,,
1279.674,-210.0,,
1279.689,-210.0,,
1279.704,-210.0,,
1279.719,-210.0,,
1279.734,-210.0,,
1279.749,-210.0,,
1279.764,-210.0,,
1279.779,-210.0,,
1279.794,-210.0,,
1279.809,-210.0,,
1279.824,-210.0,,
1279.839,-210.0,,
1279.854,-210.0,,
1279.869,-210.0,,
1279.884,-210.0,,
1279.899,-210.0,,
1279.914,-210.0,,
1279.929,-210.0,,
1279.944,-210.0,,
1279.959,-210.0,,
1279.974,-210.0,,
1279.989,-210.0,,
1280.004,-210.0,,
1280.019,-70.66,,
1280.034,-72.57,,
1280.049,-210.0,,
1280.064,-210.0,,
1280.079,-72.08,,
1280.094,-69.58,,
1280.109,-68.69,,
1280.124,-210.0,,
1280.139,-69.89,,
1280.154,-67.91,,
1280.169,-68.16,,
1280.184,-69.78,,
1280.199,-210.0,,
1280.214,-68.24,,
1280.229,-69.15,,
1280.244,-69.71,,
1280.259,-210.0,,
1280.274,-210.0,,
1280.289,-69.06,,
1280.304,-70.26,,
1280.319,-210.0,,
1280.334,-210.0,,
1280.349,-210.0,,
1280.364,-68.7,,
1280.379,-74.53,,
1280.394,-210.0,,
1280.409,-210.0,,
1280.424,-210.0,,
1280.439,-68.57,,
1280.454,-71.8,,
1280.469,-210.0,,
1280.484,-210.0,,
1280.499,-71.06,,
1280.514,-67.97,,
1280.529,-210.0,,
1280.544,-210.0,,
1280.559,-210.0,,
1280.574,-69.17,,
1280.589,-71.52,,
1280.604,-210.0,,
1280.619,-210.0,,
1280.634,-210.0,,
1280.649,-70.17,,
1280.664,-71.09,,
1280.679,-210.0,,
1280.694,-210.0,,
1280.709,-70.76,,
1280.724,-66.47,,
1280.739,-66.48,,
1280.754,-70.18,,
1280.769,-66.13,,
1280.784,-65.47,,
1280.799,-65.8,,
1280.814,-67.21,,
1280.829,-71.82,,
1280.844,-66.54,,
1280.859,-65.79,,
1280.874,-67.42,,
1280.889,-76.63,,
1280.904,-210.0,,
1280.919,-67.6,,
1280.934,-69.05,,
1280.949,-72.78,,
1280.964,-210.0,,
1280.979,-210.0,,
1280.994,-68.79,,
1281.009,-70.55,,
1281.024,-210.0,,
1281.039,-210.0,,
1281.054,-210.0,,
1281.069,-70.49,,
1281.084,-210.0,,
1281.099,-210.0,,
1281.114,-210.0,,
1281.129,-72.77,,
1281.144,-70.97,,
1281.159,-210.0,,
1281.174,-210.0,,
1281.189,-210.0,,
1281.204,-70.11,,
1281.219,-72.62,,
1281.234,-210.0,,
1281.249,-210.0,,
1281.264,-71.25,,
1281.279,-69.04,,
1281.294,-73.93,,
1281.309,-210.0,,
1281.324,-70.8,,
1281.339,-67.68,,
1281.354,-67.41,,
1281.369,-69.35,,
1281.384,-80.41,,
1281.399,-67.61,,
1281.414,-66.72,,
1281.429,-68.51,,
1281.444,-210.0,,
1281.459,-210.0,,
1281.474,-69.94,,
1281.489,-72.29,,
1281.504,-210.0,,
1281.519,-210.0,,
1281.534,-210.0,,
1281.549,-74.65,,
1281.564,-77.13,,
1281.579,-210.0,,
1281.594,-210.0,,
1281.609,-210.0,,
1281.624,-70.94,,
1281.639,-77.58,,
1281.654,-210.0,,
1281.669,-210.0,,
1281.684,-69.15,,
1281.699,-66.66,,
1281.714,-71.29,,
1281.729,-210.0,,
1281.744,-210.0,,
1281.759,-70.98,,
1281.774,-77.26,,
1281.789,-210.0,,
1281.804,-210.0,,
1281.819,-210.0,,
1281.834,-75.21,,
1281.849,-210.0,,
1281.864,-210.0,,
1281.879,-210.0,,
1281.894,-210.0,,
1281.909,-71.55,,
1281.924,-210.0,,
1281.939,-210.0,,
1281.954,-210.0,,
1281.969,-77.41,,
1281.984,-69.81,,
1281.999,-210.0,,
1282.014,-210.0,,
1282.029,-72.08,,
1282.044,-69.37,,
1282.059,-69.41,,
1282.074,-210.0,,
1282.089,-75.44,,
1282.104,-66.65,,
1282.119,-71.53,,
1282.134,-71.75,,
1282.149,-210.0,,
1282.164,-110.92,,
1282.179,-69.92,,
1282.194,-210.0,,
1282.209,-210.0,,
1282.224,-210.0,,
1282.239,-210.0,,
1282.254,-75.11,,
1282.269,-210.0,,
1282.284,-210.0,,
1282.299,-210.0,,
1282.314,-79.13,,
1282.329,-79.92,,
1282.344,-210.0,,
1282.359,-210.0,,
1282.374,-210.0,,
1282.389,-73.04,,
1282.404,-75.58,,
1282.419,-210.0,,
1282.434,-210.0,,
1282.449,-73.95,,
1282.464,-70.28,,
1282.479,-78.71,,
1282.494,-210.0,,
1282.509,-74.32,,
1282.524,-71.59,,
1282.539,-71.14,,
1282.554,-76.93,,
1282.569,-210.0,,
1282.584,-68.69,,
1282.599,-71.97,,
1282.614,-210.0,,
1282.629,-210.0,,
1282.644,-210.0,,
1282.659,-71.56,,
1282.674,-77.67,,
1282.689,-210.0,,
1282.704,-210.0,,
1282.719,-210.0,,
1282.734,-77.95,,
1282.749,-210.0,,
1282.764,-210.0,,
1282.779,-210.0,,
1282.794,-210.0,,
1282.809,-210.0,,
1282.824,-210.0,,
1282.839,-210.0,,
1282.854,-210.0,,
1282.869,-210.0,,
1282.884,-210.0,,
1282.899,-210.0,,
1282.914,-210.0,,
1282.929,-210.0,,
1282.944,-77.33,,
1282.959,-210.0,,
1282.974,-210.0,,
1282.989,-210.0,,
1283.004,-73.87,,
1283.019,-74.37,,
1283.034,-210.0,,
1283.049,-210.0,,
1283.064,-210.0,,
1283.079,-70.27,,
1283.094,-210.0,,
1283.109,-210.0,,
1283.124,-210.0,,
1283.139,-210.0,,
1283.154,-77.36,,
1283.169,-210.0,,
1283.184,-210.0,,
1283.199,-210.0,,
1283.214,-82.21,,
1283.229,-78.83,,
1283.244,-82.61,,
1283.259,-210.0,,
1283.274,-70.48,,
1283.289,-70.26,,
1283.304,-210.0,,
1283.319,-210.0,,
1283.334,-210.0,,
1283.349,-68.14,,
1283.364,-70.35,,
1283.379,-210.0,,
1283.394,-87.97,,
1283.409,-85.46,,
1283.424,-69.04,,
1283.439,-210.0,,
1283.454,-210.0,,
1283.469,-210.0,,
1283.484,-210.0,,
1283.499,-79.64,,
1283.514,-210.0,,
1283.529,-210.0,,
1283.544,-210.0,,
1283.559,-210.0,,
1283.574,-210.0,,
1283.589,-210.0,,
1283.604,-210.0,,
1283.619,-78.26,,
1283.634,-210.0,,
1283.649,-210.0,,
1283.664,-210.0,,
1283.679,-210.0,,
1283.694,-210.0,,
1283.709,-210.0,,
1283.724,-210.0,,
1283.739,-210.0,,
1283.754,-210.0,,
1283.769,-72.19,,
1283.784,-210.0,,
1283.799,-210.0,,
1283.814,-210.0,,
1283.829,-210.0,,
1283.844,-210.0,,
1283.859,-210.0,,
1283.874,-210.0,,
1283.889,-73.4,,
1283.904,-83.02,,
1283.919,-210.0,,
1283.934,-210.0,,
1283.949,-210.0,,
1283.964,-210.0,,
1283.979,-210.0,,
1283.994,-210.0,,
1284.009,-210.0,,
1284.024,-210.0,,
1284.039,-210.0,,
1284.054,-210.0,,
1284.069,-210.0,,
1284.084,-210.0,,
1284.099,-210.0,,
1284.114,-210.0,,
1284.129,-210.0,,
1284.144,-210.0,,
1284.159,-210.0,,
1284.174,-210.0,,
1284.189,-210.0,,
1284.204,-210.0,,
1284.219,-210.0,,
1284.234,-210.0,,
1284.249,-210.0,,
1284.264,-210.0,,
1284.279,-210.0,,
1284.294,-210.0,,
1284.309,-210.0,,
1284.324,-210.0,,
1284.339,-210.0,,
1284.354,-210.0,,
1284.369,-210.0,,
1284.384,-210.0,,
1284.399,-210.0,,
1284.414,-210.0,,
1284.429,-210.0,,
1284.444,-210.0,,
1284.459,-210.0,,
1284.474,-210.0,,
1284.489,-210.0,,
1284.504,-210.0,,
1284.519,-210.0,,
1284.534,-210.0,,
1284.549,-210.0,,
1284.564,-210.0,,
1284.579,-210.0,,
1284.594,-210.0,,
1284.609,-210.0,,
1284.624,-210.0,,
1284.639,-210.0,,
1284.654,-210.0,,
1284.669,-210.0,,
1284.684,-210.0,,
1284.699,-210.0,,
1284.714,-210.0,,
1284.729,-210.0,,
1284.744,-210.0,,
1284.759,-210.0,,
1284.774,-210.0,,
1284.789,-210.0,,
1284.804,-210.0,,
1284.819,-210.0,,
1284.834,-210.0,,
1284.849,-210.0,,
1284.864,-210.0,,
1284.879,-210.0,,
1284.894,-210.0,,
1284.909,-210.0,,
1284.924,-210.0,,
1284.939,-210.0,,
1284.954,-210.0,,
1284.969,-210.0,,
1284.984,-210.0,,
1284.999,-210.0,,
1285.014,-210.0,,
1285.029,-210.0,,
1285.044,-210.0,,
1285.059,-210.0,,
1285.074,-210.0,,
1285.089,-210.0,,
1285.104,-210.0,,
1285.119,-210.0,,
1285.134,-210.0,,
1285.149,-210.0,,
1285.164,-210.0,,
1285.179,-210.0,,
1285.194,-210.0,,
1285.209,-210.0,,
1285.224,-210.0,,
1285.24,-210.0,,
1285.255,-210.0,,
1285.269,-210.0,,
1285.284,-210.0,,
1285.299,-210.0,,
1285.314,-210.0,,
1285.329,-210.0,,
1285.344,-210.0,,
1285.359,-210.0,,
1285.375,-210.0,,
1285.39,-210.0,,
1285.404,-210.0,,
1285.419,-210.0,,
1285.434,-210.0,,
1285.449,-210.0,,
1285.464,-210.0,,
1285.479,-210.0,,
1285.495,-210.0,,
1285.51,-210.0,,
1285.525,-210.0,,
1285.54,-210.0,,
1285.554,-210.0,,
1285.569,-76.32,,
1285.584,-210.0,,
1285.599,-210.0,,
1285.615,-210.0,,
1285.63,-72.85,,
1285.645,-210.0,,
1285.66,-210.0,,
1285.675,-210.0,,
1285.689,-210.0,,
1285.704,-210.0,,
1285.719,-210.0,,
1285.734,-210.0,,
1285.75,-210.0,,
1285.765,-210.0,,
1285.78,-210.0,,
1285.795,-210.0,,
1285.81,-210.0,,
1285.825,-210.0,,
1285.839,-75.32,,
1285.854,-210.0,,
1285.87,-210.0,,
1285.885,-210.0,,
1285.9,-73.86,,
1285.915,-69.77,,
1285.93,-210.0,,
1285.945,-210.0,,
1285.96,-69.38,,
1285.974,-67.86,,
1285.99,-75.11,,
1286.005,-210.0,,
1286.02,-210.0,,
1286.035,-71.12,,
1286.05,-210.0,,
1286.065,-210.0,,
1286.08,-210.0,,
1286.095,-82.64,,
1286.11,-68.9,,
1286.125,-210.0,,
1286.14,-210.0,,
1286.155,-72.21,,
1286.17,-67.91,,
1286.185,-66.83,,
1286.2,-72.83,,
1286.215,-73.3,,
1286.23,-70.09,,
1286.245,-67.72,,
1286.26,-67.8,,
1286.275,-210.0,,
1286.29,-77.26,,
1286.305,-67.22,,
1286.32,-65.63,,
1286.335,-66.98,,
1286.35,-80.86,,
1286.365,-81.25,,
1286.38,-67.06,,
1286.395,-70.25,,
1286.41,-69.25,,
1286.425,-68.47,,
1286.44,-68.09,,
1286.455,-65.24,,
1286.47,-67.65,,
1286.485,-67.05,,
1286.5,-67.03,,
1286.515,-67.3,,
1286.53,-65.64,,
1286.545,-69.22,,
1286.56,-68.32,,
1286.575,-69.91,,
1286.59,-69.95,,
1286.605,-70.1,,
1286.62,-210.0,,
1286.635,-210.0,,
1286.65,-68.22,,
1286.665,-68.77,,
1286.68,-69.35,,
1286.695,-67.11,,
1286.71,-66.18,,
1286.725,-64.49,,
1286.74,-66.75,,
1286.755,-65.89,,
1286.77,-65.94,,
1286.785,-66.95,,
1286.8,-65.64,,
1286.815,-68.73,,
1286.83,-68.49,,
1286.845,-68.62,,
1286.86,-67.59,,
1286.875,-68.73,,
1286.89,-210.0,,
1286.905,-75.3,,
1286.92,-76.35,,
1286.935,-76.18,,
1286.95,-78.24,,
1286.965,-210.0,,
1286.98,-78.19,,
1286.995,-70.01,,
1287.01,-70.21,,
1287.025,-69.86,,
1287.04,-69.4,,
1287.055,-69.01,,
1287.07,-69.02,,
1287.085,-210.0,,
1287.1,-77.34,,
1287.115,-74.13,,
1287.13,-71.06,,
1287.145,-210.0,,
1287.16,-210.0,,
1287.175,-210.0,,
1287.19,-210.0,,
1287.205,-210.0,,
1287.22,-210.0,,
1287.235,-210.0,,
1287.25,-210.0,,
1287.265,-210.0,,
1287.28,-210.0,,
1287.295,-89.36,,
1287.31,-210.0,,
1287.325,-210.0,,
1287.34,-210.0,,
1287.355,-69.75,,
1287.37,-69.58,,
1287.385,-70.7,,
1287.4,-71.02,,
1287.415,-72.54,,
1287.43,-70.08,,
1287.445,-68.89,,
1287.46,-70.78,,
1287.475,-70.68,,
1287.49,-71.27,,
1287.505,-72.78,,
1287.52,-73.08,,
1287.535,-210.0,,
1287.55,-210.0,,
1287.565,-210.0,,
1287.58,-210.0,,
1287.595,-210.0,,
1287.61,-210.0,,
1287.625,-75.61,,
1287.64,-210.0,,
1287.655,-210.0,,
1287.67,-210.0,,
1287.685,-210.0,,
1287.7,-210.0,,
1287.715,-210.0,,
1287.73,-210.0,,
1287.745,-210.0,,
1287.76,-210.0,,
1287.775,-210.0,,
1287.79,-210.0,,
1287.805,-210.0,,
1287.82,-210.0,,
1287.835,-210.0,,
1287.85,-210.0,,
1287.865,-210.0,,
1287.88,-210.0,,
1287.895,-72.51,,
1287.91,-71.68,,
1287.925,-72.73,,
1287.94,-72.47,,
1287.955,-72.95,,
1287.97,-73.61,,
1287.985,-75.84,,
1288.0,-210.0,,
1288.015,-210.0,,
1288.03,-210.0,,
1288.045,-210.0,,
1288.06,-210.0,,
1288.075,-88.79,,
1288.09,-73.09,,
1288.105,-69.55,,
1288.12,-75.49,,
1288.135,-74.86,,
1288.15,-69.3,,
1288.165,-75.65,,
1288.18,-71.39,,
1288.195,-76.17,,
1288.21,-70.73,,
1288.225,-68.58,,
1288.24,-74.89,,
1288.255,-72.46,,
1288.27,-210.0,,
1288.285,-210.0,,
1288.3,-210.0,,
1288.315,-210.0,,
1288.33,-210.0,,
1288.345,-77.06,,
1288.36,-210.0,,
1288.375,-73.41,,
1288.39,-75.53,,
1288.405,-71.02,,
1288.42,-72.72,,
1288.435,-210.0,,
1288.45,-210.0,,
1288.465,-210.0,,
1288.48,-210.0,,
1288.495,-210.0,,
1288.51,-210.0,,
1288.525,-210.0,,
1288.54,-210.0,,
1288.555,-210.0,,
1288.57,-210.0,,
1288.585,-210.0,,
1288.6,-210.0,,
1288.615,-73.24,,
1288.63,-210.0,,
1288.645,-210.0,,
1288.66,-210.0,,
1288.675,-80.77,,
1288.69,-70.33,,
1288.705,-72.46,,
1288.72,-76.66,,
1288.735,-68.08,,
1288.75,-72.8,,
1288.765,-67.24,,
1288.78,-70.75,,
1288.795,-70.05,,
1288.81,-65.68,,
1288.825,-68.12,,
1288.84,-66.91,,
1288.855,-67.69,,
1288.87,-67.91,,
1288.885,-66.19,,
1288.9,-71.14,,
1288.915,-71.13,,
1288.93,-75.35,,
1288.945,-210.0,,
1288.96,-69.53,,
1288.975,-210.0,,
1288.99,-210.0,,
1289.005,-70.42,,
1289.02,-71.57,,
1289.035,-68.74,,
1289.05,-66.81,,
1289.065,-66.88,,
1289.08,-66.9,,
1289.095,-66.9,,
1289.11,-67.79,,
1289.125,-65.98,,
1289.14,-67.8,,
1289.155,-65.96,,
1289.17,-66.46,,
1289.185,-67.5,,
1289.2,-66.69,,
1289.215,-70.13,,
1289.23,-78.73,,
1289.245,-210.0,,
1289.26,-82.78,,
1289.275,-74.14,,
1289.29,-71.18,,
1289.305,-70.94,,
1289.32,-67.71,,
1289.335,-69.54,,
1289.35,-68.62,,
1289.365,-67.3,,
1289.38,-73.78,,
1289.395,-68.97,,
1289.41,-76.06,,
1289.425,-74.16,,
1289.44,-76.31,,
1289.455,-210.0,,
1289.47,-76.57,,
1289.485,-76.42,,
1289.5,-83.0,,
1289.515,-72.53,,
1289.53,-210.0,,
1289.545,-75.69,,
1289.56,-77.57,,
1289.575,-210.0,,
1289.59,-72.06,,
1289.605,-73.82,,
1289.62,-70.07,,
1289.635,-70.61,,
1289.65,-73.38,,
1289.665,-70.09,,
1289.68,-72.79,,
1289.695,-210.0,,
1289.71,-210.0,,
1289.725,-210.0,,
1289.74,-210.0,,
1289.755,-210.0,,
1289.77,-210.0,,
1289.785,-210.0,,
1289.8,-210.0,,
1289.815,-210.0,,
1289.83,-210.0,,
1289.845,-210.0,,
1289.86,-210.0,,
1289.875,-210.0,,
1289.89,-210.0,,
1289.905,-210.0,,
1289.92,-210.0,,
1289.935,-210.0,,
1289.95,-210.0,,
1289.965,-210.0,,
1289.98,-210.0,,
1289.995,-210.0,,
1290.01,-210.0,,
1290.025,-210.0,,
1290.04,-210.0,,
1290.055,-210.0,,
1290.07,-210.0,,
1290.085,-210.0,,
1290.1,-210.0,,
1290.115,-210.0,,
1290.13,-210.0,,
1290.145,-210.0,,
1290.16,-210.0,,
1290.175,-210.0,,
1290.19,-210.0,,
1290.205,-210.0,,
1290.22,-210.0,,
1290.235,-210.0,,
1290.25,-210.0,,
1290.265,-210.0,,
1290.28,-210.0,,
1290.295,-210.0,,
1290.31,-210.0,,
1290.325,-210.0,,
1290.34,-210.0,,
1290.355,-210.0,,
1290.37,-210.0,,
1290.385,-210.0,,
1290.4,-210.0,,
1290.415,-210.0,,
1290.43,-210.0,,
1290.445,-210.0,,
1290.46,-82.88,,
1290.475,-210.0,,
1290.49,-210.0,,
1290.505,-210.0,,
1290.52,-210.0,,
1290.535,-77.39,,
1290.55,-210.0,,
1290.565,-73.11,,
1290.58,-73.18,,
1290.595,-75.01,,
1290.61,-73.64,,
1290.625,-210.0,,
1290.64,-210.0,,
1290.655,-73.54,,
1290.67,-210.0,,
1290.685,-210.0,,
1290.7,-74.63,,
1290.715,-210.0,,
1290.73,-74.56,,
1290.745,-71.15,,
1290.76,-76.38,,
1290.775,-68.74,,
1290.79,-210.0,,
1290.805,-84.23,,
1290.82,-210.0,,
1290.835,-210.0,,
1290.85,-76.7,,
1290.865,-70.76,,
1290.88,-80.24,,
1290.895,-70.3,,
1290.91,-74.49,,
1290.925,-68.72,,
1290.94,-66.55,,
1290.955,-69.98,,
1290.97,-70.47,,
1290.985,-71.27,,
1291.0,-68.95,,
1291.015,-69.03,,
1291.03,-71.84,,
1291.045,-70.13,,
1291.06,-66.37,,
1291.075,-67.1,,
1291.09,-67.94,,
1291.105,-71.53,,
1291.12,-74.74,,
1291.135,-68.34,,
1291.15,-69.96,,
1291.165,-74.27,,
1291.18,-69.94,,
1291.195,-68.16,,
1291.21,-65.81,,
1291.225,-66.61,,
1291.24,-67.27,,
1291.255,-65.51,,
1291.27,-64.75,,
1291.285,-66.67,,
1291.3,-68.35,,
1291.315,-70.43,,
1291.33,-69.98,,
1291.345,-70.3,,
1291.36,-73.35,,
1291.375,-210.0,,
1291.39,-74.22,,
1291.405,-70.87,,
1291.42,-72.53,,
1291.435,-210.0,,
1291.45,-84.74,,
1291.465,-73.26,,
1291.48,-71.07,,
1291.495,-76.68,,
1291.51,-88.11,,
1291.525,-73.54,,
1291.54,-70.73,,
1291.555,-71.23,,
1291.57,-210.0,,
1291.585,-72.98,,
1291.6,-72.32,,
1291.615,-73.59,,
1291.63,-210.0,,
1291.645,-210.0,,
1291.66,-73.44,,
1291.675,-69.02,,
1291.69,-210.0,,
1291.705,-210.0,,
1291.72,-210.0,,
1291.735,-71.82,,
1291.75,-76.75,,
1291.765,-210.0,,
1291.78,-210.0,,
1291.795,-70.38,,
1291.81,-68.63,,
1291.825,-70.8,,
1291.84,-210.0,,
1291.855,-70.12,,
1291.87,-70.18,,
1291.885,-75.26,,
1291.9,-210.0,,
1291.915,-210.0,,
1291.93,-210.0,,
1291.945,-210.0,,
1291.96,-210.0,,
1291.975,-210.0,,
1291.99,-210.0,,
1292.005,-81.15,,
1292.02,-74.0,,
1292.035,-210.0,,
1292.05,-210.0,,
1292.065,-210.0,,
1292.08,-210.0,,
1292.095,-210.0,,
1292.11,-210.0,,
1292.125,-210.0,,
1292.14,-210.0,,
1292.155,-210.0,,
1292.17,-210.0,,
1292.185,-86.1,,
1292.2,-68.27,,
1292.215,-73.19,,
1292.23,-210.0,,
1292.245,-210.0,,
1292.26,-72.08,,
1292.275,-83.17,,
1292.29,-210.0,,
1292.305,-210.0,,
1292.32,-73.32,,
1292.335,-67.77,,
1292.35,-72.02,,
1292.365,-210.0,,
1292.38,-71.23,,
1292.395,-70.09,,
1292.41,-77.85,,
1292.425,-210.0,,
1292.44,-210.0,,
1292.455,-210.0,,
1292.47,-210.0,,
1292.485,-210.0,,
1292.5,-210.0,,
1292.515,-210.0,,
1292.53,-210.0,,
1292.545,-210.0,,
1292.56,-210.0,,
1292.575,-210.0,,
1292.59,-210.0,,
1292.605,-210.0,,
1292.62,-210.0,,
1292.635,-210.0,,
1292.65,-210.0,,
1292.665,-210.0,,
1292.68,-210.0,,
1292.695,-210.0,,
1292.71,-210.0,,
1292.725,-210.0,,
1292.74,-210.0,,
1292.755,-210.0,,
1292.77,-210.0,,
1292.785,-210.0,,
1292.8,-210.0,,
1292.815,-210.0,,
1292.83,-210.0,,
1292.845,-210.0,,
1292.86,-210.0,,
1292.875,-210.0,,
1292.89,-210.0,,
1292.905,-210.0,,
1292.92,-210.0,,
1292.935,-210.0,,
1292.95,-210.0,,
1292.965,-210.0,,
1292.98,-210.0,,
1292.995,-210.0,,
1293.01,-210.0,,
1293.025,-210.0,,
1293.04,-210.0,,
1293.055,-210.0,,
1293.07,-210.0,,
1293.085,-210.0,,
1293.1,-210.0,,
1293.115,-71.71,,
1293.13,-68.77,,
1293.145,-210.0,,
1293.16,-210.0,,
1293.175,-72.6,,
1293.19,-72.12,,
1293.205,-210.0,,
1293.22,-210.0,,
1293.235,-210.0,,
1293.25,-73.39,,
1293.266,-86.4,,
1293.281,-210.0,,
1293.295,-210.0,,
1293.31,-77.36,,
1293.325,-210.0,,
1293.34,-210.0,,
1293.355,-210.0,,
1293.37,-210.0,,
1293.385,-77.24,,
1293.401,-210.0,,
1293.416,-210.0,,
1293.43,-75.66,,
1293.445,-67.86,,
1293.46,-74.46,,
1293.475,-210.0,,
1293.49,-210.0,,
1293.505,-70.0,,
1293.521,-77.24,,
1293.536,-210.0,,
1293.551,-210.0,,
1293.566,-70.77,,
1293.58,-68.45,,
1293.595,-76.54,,
1293.61,-210.0,,
1293.625,-71.18,,
1293.641,-69.04,,
1293.656,-80.21,,
1293.671,-210.0,,
1293.686,-210.0,,
1293.701,-71.8,,
1293.715,-73.11,,
1293.73,-210.0,,
1293.745,-210.0,,
1293.76,-71.71,,
1293.776,-70.5,,
1293.791,-74.56,,
1293.806,-210.0,,
1293.821,-210.0,,
1293.836,-72.33,,
1293.851,-210.0,,
1293.865,-210.0,,
1293.88,-210.0,,
1293.896,-70.97,,
1293.911,-68.98,,
1293.926,-210.0,,
1293.941,-210.0,,
1293.956,-70.98,,
1293.971,-70.57,,
1293.986,-210.0,,
1294.001,-210.0,,
1294.016,-210.0,,
1294.031,-78.07,,
1294.046,-210.0,,
1294.061,-210.0,,
1294.076,-210.0,,
1294.091,-210.0,,
1294.106,-210.0,,
1294.121,-210.0,,
1294.136,-210.0,,
1294.151,-210.0,,
1294.166,-210.0,,
1294.181,-210.0,,
1294.196,-210.0,,
1294.211,-210.0,,
1294.226,-210.0,,
1294.241,-210.0,,
1294.256,-210.0,,
1294.271,-210.0,,
1294.286,-210.0,,
1294.301,-210.0,,
1294.316,-210.0,,
1294.331,-210.0,,
1294.346,-210.0,,
1294.361,-210.0,,
1294.376,-210.0,,
1294.391,-210.0,,
1294.406,-210.0,,
1294.421,-210.0,,
1294.436,-210.0,,
1294.451,-210.0,,
1294.466,-210.0,,
1294.481,-210.0,,
1294.496,-210.0,,
1294.511,-210.0,,
1294.526,-210.0,,
1294.541,-210.0,,
1294.556,-210.0,,
1294.571,-210.0,,
1294.586,-210.0,,
1294.601,-210.0,,
1294.616,-210.0,,
1294.631,-210.0,,
1294.646,-210.0,,
1294.661,-210.0,,
1294.676,-210.0,,
1294.691,-210.0,,
1294.706,-210.0,,
1294.721,-210.0,,
1294.736,-210.0,,
1294.751,-210.0,,
1294.766,-210.0,,
1294.781,-210.0,,
1294.796,-210.0,,
1294.811,-210.0,,
1294.826,-210.0,,
1294.841,-210.0,,
1294.856,-210.0,,
1294.871,-210.0,,
1294.886,-210.0,,
1294.901,-210.0,,
1294.916,-210.0,,
1294.931,-210.0,,
1294.946,-210.0,,
1294.961,-210.0,,
1294.976,-210.0,,
1294.991,-210.0,,
1295.006,-210.0,,
1295.021,-210.0,,
1295.036,-210.0,,
1295.051,-210.0,,
1295.066,-210.0,,
1295.081,-210.0,,
1295.096,-210.0,,
1295.111,-210.0,,
1295.126,-210.0,,
1295.141,-210.0,,
1295.156,-210.0,,
1295.171,-210.0,,
1295.186,-210.0,,
1295.201,-89.18,,
1295.216,-83.96,,
1295.231,-210.0,,
1295.246,-210.0,,
1295.261,-210.0,,
1295.276,-210.0,,
1295.291,-210.0,,
1295.306,-210.0,,
1295.321,-210.0,,
1295.336,-210.0,,
1295.351,-210.0,,
1295.366,-210.0,,
1295.381,-210.0,,
1295.396,-210.0,,
1295.411,-70.41,,
1295.426,-84.45,,
1295.441,-210.0,,
1295.456,-210.0,,
1295.471,-74.76,,
1295.486,-210.0,,
1295.501,-210.0,,
1295.516,-210.0,,
1295.531,-210.0,,
1295.546,-210.0,,
1295.561,-210.0,,
1295.576,-210.0,,
1295.591,-210.0,,
1295.606,-210.0,,
1295.621,-79.84,,
1295.636,-210.0,,
1295.651,-210.0,,
1295.666,-80.44,,
1295.681,-73.93,,
1295.696,-210.0,,
1295.711,-210.0,,
1295.726,-70.8,,
1295.741,-68.74,,
1295.756,-88.6,,
1295.771,-210.0,,
1295.786,-210.0,,
1295.801,-71.03,,
1295.816,-76.25,,
1295.831,-210.0,,
1295.846,-210.0,,
1295.861,-71.62,,
1295.876,-210.0,,
1295.891,-210.0,,
1295.906,-210.0,,
1295.921,-210.0,,
1295.936,-76.52,,
1295.951,-210.0,,
1295.966,-210.0,,
1295.981,-210.0,,
1295.996,-70.84,,
1296.011,-74.51,,
1296.026,-210.0,,
1296.041,-210.0,,
1296.056,-69.69,,
1296.071,-70.9,,
1296.086,-210.0,,
1296.101,-75.27,,
1296.116,-68.73,,
1296.131,-68.82,,
1296.146,-73.75,,
1296.161,-210.0,,
1296.176,-91.15,,
1296.191,-70.26,,
1296.206,-210.0,,
1296.221,-210.0,,
1296.236,-210.0,,
1296.251,-68.64,,
1296.266,-67.52,,
1296.281,-78.85,,
1296.296,-210.0,,
1296.311,-69.66,,
1296.326,-71.19,,
1296.341,-210.0,,
1296.356,-210.0,,
1296.371,-210.0,,
1296.386,-68.63,,
1296.401,-69.23,,
1296.416,-210.0,,
1296.431,-72.1,,
1296.446,-71.04,,
1296.461,-71.94,,
1296.476,-74.75,,
1296.491,-210.0,,
1296.506,-75.28,,
1296.521,-68.55,,
1296.536,-210.0,,
1296.551,-79.6,,
1296.566,-72.98,,
1296.581,-69.32,,
1296.596,-67.16,,
1296.611,-72.44,,
1296.626,-210.0,,
1296.641,-72.16,,
1296.656,-210.0,,
1296.671,-83.3,,
1296.686,-210.0,,
1296.701,-210.0,,
1296.716,-69.36,,
1296.731,-210.0,,
1296.746,-210.0,,
1296.761,-210.0,,
1296.776,-210.0,,
1296.791,-76.47,,
1296.806,-210.0,,
1296.821,-210.0,,
1296.836,-69.06,,
1296.851,-68.5,,
1296.866,-210.0,,
1296.881,-83.2,,
1296.896,-68.64,,
1296.911,-67.54,,
1296.926,-70.61,,
1296.941,-210.0,,
1296.956,-75.87,,
1296.971,-68.09,,
1296.986,-72.6,,
1297.001,-210.0,,
1297.016,-210.0,,
1297.031,-210.0,,
1297.046,-210.0,,
1297.061,-210.0,,
1297.076,-210.0,,
1297.091,-210.0,,
1297.106,-210.0,,
1297.121,-210.0,,
1297.136,-210.0,,
1297.151,-210.0,,
1297.166,-210.0,,
1297.181,-210.0,,
1297.196,-210.0,,
1297.211,-210.0,,
1297.226,-210.0,,
1297.241,-210.0,,
1297.256,-210.0,,
1297.271,-210.0,,
1297.286,-210.0,,
1297.301,-77.26,,
1297.316,-210.0,,
1297.331,-210.0,,
1297.346,-81.43,,
1297.361,-210.0,,
1297.376,-210.0,,
1297.391,-210.0,,
1297.406,-210.0,,
1297.421,-210.0,,
1297.436,-210.0,,
1297.451,-210.0,,
1297.466,-210.0,,
1297.481,-210.0,,
1297.496,-210.0,,
1297.511,-210.0,,
1297.526,-210.0,,
1297.541,-67.75,,
1297.556,-69.39,,
1297.571,-210.0,,
1297.586,-210.0,,
1297.601,-76.94,,
1297.616,-70.17,,
1297.631,-210.0,,
1297.646,-210.0,,
1297.661,-210.0,,
1297.676,-73.14,,
1297.691,-210.0,,
1297.706,-210.0,,
1297.721,-210.0,,
1297.736,-210.0,,
1297.751,-80.39,,
1297.766,-210.0,,
1297.781,-210.0,,
1297.796,-79.2,,
1297.811,-71.37,,
1297.826,-210.0,,
1297.841,-210.0,,
1297.856,-210.0,,
1297.871,-68.6,,
1297.886,-70.06,,
1297.901,-210.0,,
1297.916,-210.0,,
1297.931,-69.38,,
1297.946,-68.42,,
1297.961,-70.27,,
1297.976,-70.46,,
1297.991,-67.83,,
1298.006,-65.91,,
1298.021,-74.64,,
1298.036,-80.43,,
1298.051,-68.28,,
1298.066,-65.64,,
1298.081,-66.55,,
1298.096,-73.24,,
1298.111,-210.0,,
1298.126,-65.64,,
1298.141,-66.88,,
1298.156,-73.39,,
1298.171,-68.75,,
1298.186,-66.74,,
1298.201,-66.46,,
1298.216,-67.91,,
1298.231,-76.82,,
1298.246,-67.75,,
1298.261,-65.62,,
1298.276,-67.57,,
1298.291,-74.46,,
1298.306,-70.35,,
1298.321,-68.29,,
1298.336,-67.44,,
1298.351,-74.45,,
1298.366,-78.4,,
1298.381,-67.37,,
1298.396,-68.09,,
1298.411,-73.78,,
1298.426,-210.0,,
1298.441,-70.15,,
1298.456,-66.11,,
1298.471,-66.74,,
1298.486,-74.66,,
1298.501,-67.74,,
1298.516,-66.8,,
1298.531,-66.21,,
1298.546,-81.33,,
1298.561,-210.0,,
1298.576,-74.46,,
1298.591,-68.78,,
1298.606,-210.0,,
1298.621,-210.0,,
1298.636,-210.0,,
1298.651,-67.95,,
1298.666,-72.8,,
1298.681,-210.0,,
1298.696,-210.0,,
1298.711,-68.66,,
1298.726,-69.61,,
1298.741,-210.0,,
1298.756,-210.0,,
1298.771,-88.22,,
1298.786,-68.03,,
1298.801,-68.25,,
1298.816,-79.13,,
1298.831,-71.78,,
1298.846,-69.13,,
1298.861,-69.72,,
1298.876,-210.0,,
1298.891,-210.0,,
1298.906,-69.9,,
1298.921,-68.89,,
1298.936,-69.43,,
1298.951,-69.79,,
1298.966,-73.28,,
1298.981,-72.04,,
1298.996,-79.64,,
1299.011,-210.0,,
1299.026,-210.0,,
1299.041,-210.0,,
1299.056,-78.94,,
1299.071,-210.0,,
1299.086,-210.0,,
1299.101,-79.6,,
1299.116,-69.08,,
1299.131,-210.0,,
1299.146,-210.0,,
1299.161,-210.0,,
1299.176,-71.9,,
1299.191,-80.68,,
1299.206,-210.0,,
1299.221,-210.0,,
1299.236,-75.39,,
1299.251,-210.0,,
1299.266,-210.0,,
1299.281,-210.0,,
1299.296,-210.0,,
1299.311,-210.0,,
1299.326,-210.0,,
1299.341,-210.0,,
1299.356,-210.0,,
1299.371,-210.0,,
1299.386,-210.0,,
1299.401,-210.0,,
1299.416,-210.0,,
1299.431,-210.0,,
1299.446,-210.0,,
1299.461,-210.0,,
1299.476,-210.0,,
1299.491,-210.0,,
1299.506,-210.0,,
1299.521,-210.0,,
1299.536,-210.0,,
1299.551,-210.0,,
1299.566,-210.0,,
1299.581,-210.0,,
1299.596,-210.0,,
1299.611,-210.0,,
1299.626,-210.0,,
1299.641,-210.0,,
1299.656,-210.0,,
1299.671,-210.0,,
1299.686,-210.0,,
1299.701,-210.0,,
1299.716,-210.0,,
1299.731,-210.0,,
1299.746,-210.0,,
1299.761,-210.0,,
1299.776,-210.0,,
1299.791,-210.0,,
1299.806,-210.0,,
1299.821,-210.0,,
1299.836,-210.0,,
1299.851,-210.0,,
1299.866,-210.0,,
1299.881,-210.0,,
1299.896,-210.0,,
1299.911,-210.0,,
1299.926,-210.0,,
1299.941,-210.0,,
1299.956,-210.0,,
1299.971,-210.0,,
1299.986,-210.0,,
1300.001,-210.0,,
1300.016,-210.0,,
1300.031,-210.0,,
1300.046,-210.0,,
1300.061,-210.0,,
1300.076,-210.0,,
1300.091,-210.0,,
1300.106,-210.0,,
1300.121,-210.0,,
1300.136,-210.0,,
1300.151,-210.0,,
1300.166,-210.0,,
1300.181,-210.0,,
1300.196,-210.0,,
1300.211,-210.0,,
1300.226,-210.0,,
1300.241,-210.0,,
1300.256,-210.0,,
1300.271,-210.0,,
1300.286,-210.0,,
1300.301,-210.0,,
1300.316,-210.0,,
1300.331,-210.0,,
1300.346,-71.2,,
1300.361,-210.0,,
1300.376,-210.0,,
1300.391,-210.0,,
1300.406,-74.2,,
1300.421,-68.84,,
1300.436,-77.62,,
1300.451,-210.0,,
1300.466,-72.08,,
1300.481,-74.24,,
1300.496,-72.64,,
1300.511,-70.29,,
1300.526,-74.86,,
1300.541,-71.57,,
1300.556,-72.29,,
1300.571,-76.28,,
1300.586,-72.98,,
1300.601,-68.75,,
1300.616,-70.7,,
1300.631,-66.77,,
1300.646,-70.44,,
1300.661,-70.47,,
1300.676,-66.1,,
1300.691,-67.29,,
1300.706,-69.02,,
1300.721,-68.03,,
1300.736,-68.46,,
1300.751,-67.92,,
1300.766,-69.29,,
1300.781,-70.13,,
1300.796,-68.28,,
1300.811,-67.03,,
1300.826,-68.81,,
1300.841,-67.45,,
1300.856,-66.86,,
1300.871,-70.35,,
1300.886,-69.11,,
1300.901,-72.25,,
1300.916,-70.07,,
1300.931,-67.12,,
1300.946,-68.59,,
1300.961,-71.92,,
1300.976,-68.05,,
1300.991,-66.09,,
1301.006,-66.53,,
1301.021,-70.36,,
1301.036,-71.36,,
1301.051,-68.86,,
1301.066,-67.46,,
1301.081,-70.16,,
1301.096,-70.2,,
1301.111,-67.76,,
1301.126,-66.04,,
1301.141,-71.62,,
1301.156,-78.2,,
1301.171,-76.68,,
1301.186,-69.43,,
1301.201,-74.39,,
1301.216,-210.0,,
1301.231,-78.23,,
1301.246,-67.44,,
1301.261,-70.4,,
1301.276,-210.0,,
1301.292,-79.06,,
1301.307,-69.99,,
1301.321,-70.46,,
1301.336,-210.0,,
1301.351,-210.0,,
1301.366,-78.69,,
1301.381,-75.73,,
1301.396,-210.0,,
1301.411,-210.0,,
1301.427,-210.0,,
1301.442,-210.0,,
1301.457,-210.0,,
1301.471,-210.0,,
1301.486,-210.0,,
1301.501,-210.0,,
1301.516,-210.0,,
1301.531,-210.0,,
1301.547,-210.0,,
1301.562,-210.0,,
1301.577,-210.0,,
1301.592,-210.0,,
1301.606,-210.0,,
1301.621,-210.0,,
1301.636,-210.0,,
1301.651,-210.0,,
1301.667,-210.0,,
1301.682,-210.0,,
1301.697,-210.0,,
1301.712,-210.0,,
1301.727,-210.0,,
1301.742,-210.0,,
1301.756,-210.0,,
1301.771,-210.0,,
1301.786,-210.0,,
1301.802,-210.0,,
1301.817,-210.0,,
1301.832,-210.0,,
1301.847,-210.0,,
1301.862,-210.0,,
1301.877,-210.0,,
1301.891,-210.0,,
1301.906,-210.0,,
1301.922,-210.0,,
1301.937,-210.0,,
1301.952,-210.0,,
1301.967,-210.0,,
1301.982,-210.0,,
1301.997,-210.0,,
1302.012,-210.0,,
1302.027,-210.0,,
1302.042,-210.0,,
1302.057,-210.0,,
1302.072,-210.0,,
1302.087,-210.0,,
1302.102,-210.0,,
1302.117,-210.0,,
1302.132,-210.0,,
1302.147,-210.0,,
1302.162,-210.0,,
1302.177,-210.0,,
1302.192,-210.0,,
1302.207,-210.0,,
1302.222,-210.0,,
1302.237,-210.0,,
1302.252,-210.0,,
1302.267,-210.0,,
1302.282,-210.0,,
1302.297,-210.0,,
1302.312,-210.0,,
1302.327,-210.0,,
1302.342,-210.0,,
1302.357,-210.0,,
1302.372,-210.0,,
1302.387,-210.0,,
1302.402,-210.0,,
1302.417,-210.0,,
1302.432,-210.0,,
1302.447,-210.0,,
1302.462,-210.0,,
1302.477,-210.0,,
1302.492,-210.0,,
1302.507,-210.0,,
1302.522,-210.0,,
1302.537,-210.0,,
1302.552,-210.0,,
1302.567,-210.0,,
1302.582,-210.0,,
1302.597,-210.0,,
1302.612,-210.0,,
1302.627,-210.0,,
1302.642,-210.0,,
1302.657,-210.0,,
1302.672,-210.0,,
1302.687,-210.0,,
1302.702,-210.0,,
1302.717,-210.0,,
1302.732,-210.0,,
1302.747,-210.0,,
1302.762,-210.0,,
1302.777,-210.0,,
1302.792,-210.0,,
1302.807,-210.0,,
1302.822,-210.0,,
1302.837,-210.0,,
1302.852,-210.0,,
1302.867,-210.0,,
1302.882,-210.0,,
1302.897,-210.0,,
1302.912,-210.0,,
1302.927,-210.0,,
1302.942,-210.0,,
1302.957,-210.0,,
1302.972,-210.0,,
1302.987,-210.0,,
1303.002,-210.0,,
1303.017,-210.0,,
1303.032,-210.0,,
1303.047,-210.0,,
1303.062,-210.0,,
1303.077,-210.0,,
1303.092,-210.0,,
1303.107,-210.0,,
1303.122,-210.0,,
1303.137,-210.0,,
1303.152,-210.0,,
1303.167,-78.71,,
1303.182,-210.0,,
1303.197,-210.0,,
1303.212,-210.0,,
1303.227,-210.0,,
1303.242,-77.75,,
1303.257,-210.0,,
1303.272,-210.0,,
1303.287,-75.6,,
1303.302,-67.16,,
1303.317,-71.21,,
1303.332,-210.0,,
1303.347,-70.46,,
1303.362,-70.17,,
1303.377,-73.16,,
1303.392,-76.8,,
1303.407,-210.0,,
1303.422,-67.91,,
1303.437,-68.44,,
1303.452,-210.0,,
1303.467,-74.94,,
1303.482,-65.85,,
1303.497,-68.67,,
1303.512,-68.18,,
1303.527,-67.36,,
1303.542,-68.83,,
1303.557,-65.01,,
1303.572,-67.16,,
1303.587,-68.68,,
1303.602,-66.08,,
1303.617,-65.19,,
1303.632,-68.16,,
1303.647,-66.82,,
1303.662,-66.92,,
1303.677,-68.21,,
1303.692,-68.67,,
1303.707,-74.06,,
1303.722,-72.8,,
1303.737,-69.54,,
1303.752,-71.94,,
1303.767,-68.24,,
1303.782,-67.32,,
1303.797,-67.58,,
1303.812,-69.6,,
1303.827,-67.7,,
1303.842,-68.5,,
1303.857,-68.0,,
1303.872,-65.45,,
1303.887,-67.97,,
1303.902,-66.71,,
1303.917,-67.02,,
1303.932,-70.56,,
1303.947,-71.2,,
1303.962,-68.65,,
1303.977,-69.65,,
1303.992,-74.1,,
1304.007,-72.45,,
1304.022,-80.67,,
1304.037,-79.73,,
1304.052,-210.0,,
1304.067,-210.0,,
1304.082,-71.29,,
1304.097,-76.93,,
1304.112,-210.0,,
1304.127,-74.49,,
1304.142,-75.35,,
1304.157,-73.51,,
1304.172,-210.0,,
1304.187,-210.0,,
1304.202,-210.0,,
1304.217,-87.52,,
1304.232,-210.0,,
1304.247,-210.0,,
1304.262,-77.3,,
1304.277,-210.0,,
1304.292,-210.0,,
1304.307,-210.0,,
1304.322,-210.0,,
1304.337,-210.0,,
1304.352,-210.0,,
1304.367,-210.0,,
1304.382,-210.0,,
1304.397,-210.0,,
1304.412,-210.0,,
1304.427,-210.0,,
1304.442,-210.0,,
1304.457,-210.0,,
1304.472,-210.0,,
1304.487,-210.0,,
1304.502,-210.0,,
1304.517,-210.0,,
1304.532,-210.0,,
1304.547,-210.0,,
1304.562,-210.0,,
1304.577,-210.0,,
1304.592,-210.0,,
1304.607,-210.0,,
1304.622,-210.0,,
1304.637,-210.0,,
1304.652,-210.0,,
1304.667,-210.0,,
1304.682,-210.0,,
1304.697,-210.0,,
1304.712,-210.0,,
1304.727,-210.0,,
1304.742,-210.0,,
1304.757,-210.0,,
1304.772,-210.0,,
1304.787,-210.0,,
1304.802,-210.0,,
1304.817,-210.0,,
1304.832,-210.0,,
1304.847,-210.0,,
1304.862,-210.0,,
1304.877,-210.0,,
1304.892,-210.0,,
1304.907,-210.0,,
1304.922,-210.0,,
1304.937,-210.0,,
1304.952,-210.0,,
1304.967,-210.0,,
1304.982,-210.0,,
1304.997,-210.0,,
1305.012,-210.0,,
1305.027,-210.0,,
1305.042,-210.0,,
1305.057,-210.0,,
1305.072,-210.0,,
1305.087,-210.0,,
1305.102,-210.0,,
1305.117,-210.0,,
1305.132,-210.0,,
1305.147,-210.0,,
1305.162,-210.0,,
1305.177,-210.0,,
1305.192,-210.0,,
1305.207,-210.0,,
1305.222,-210.0,,
1305.237,-210.0,,
1305.252,-210.0,,
1305.267,-210.0,,
1305.282,-210.0,,
1305.297,-210.0,,
1305.312,-210.0,,
1305.327,-210.0,,
1305.342,-210.0,,
1305.357,-210.0,,
1305.372,-210.0,,
1305.387,-210.0,,
1305.402,-210.0,,
1305.417,-210.0,,
1305.432,-210.0,,
1305.447,-210.0,,
1305.462,-210.0,,
1305.477,-210.0,,
1305.492,-210.0,,
1305.507,-210.0,,
1305.522,-210.0,,
1305.537,-210.0,,
1305.552,-210.0,,
1305.567,-210.0,,
1305.582,-210.0,,
1305.597,-210.0,,
1305.612,-210.0,,
1305.627,-210.0,,
1305.642,-210.0,,
1305.657,-210.0,,
1305.672,-210.0,,
1305.687,-210.0,,
1305.702,-210.0,,
1305.717,-210.0,,
1305.732,-210.0,,
1305.747,-210.0,,
1305.762,-78.23,,
1305.777,-210.0,,
1305.792,-210.0,,
1305.807,-79.25,,
1305.822,-210.0,,
1305.837,-210.0,,
1305.852,-210.0,,
1305.867,-210.0,,
1305.882,-70.74,,
1305.897,-73.55,,
1305.912,-70.86,,
1305.927,-71.85,,
1305.942,-72.82,,
1305.957,-69.51,,
1305.972,-73.08,,
1305.987,-210.0,,
1306.002,-69.62,,
1306.017,-69.17,,
1306.032,-71.71,,
1306.047,-67.99,,
1306.062,-70.52,,
1306.077,-69.42,,
1306.092,-69.77,,
1306.107,-69.19,,
1306.122,-67.81,,
1306.137,-68.12,,
1306.152,-68.87,,
1306.167,-67.39,,
1306.182,-65.91,,
1306.197,-67.82,,
1306.212,-68.34,,
1306.227,-69.94,,
1306.242,-70.94,,
1306.257,-68.63,,
1306.272,-68.04,,
1306.287,-68.54,,
1306.302,-65.86,,
1306.317,-65.46,,
1306.332,-67.46,,
1306.347,-67.03,,
1306.362,-66.73,,
1306.377,-66.29,,
1306.392,-65.74,,
1306.407,-65.44,,
1306.422,-66.47,,
1306.437,-64.72,,
1306.452,-66.33,,
1306.467,-66.46,,
1306.482,-65.21,,
1306.497,-65.38,,
1306.512,-69.02,,
1306.527,-66.17,,
1306.542,-67.37,,
1306.557,-68.53,,
1306.572,-66.56,,
1306.587,-70.54,,
1306.602,-68.67,,
1306.617,-66.12,,
1306.632,-67.67,,
1306.647,-66.78,,
1306.662,-66.37,,
1306.677,-68.61,,
1306.692,-68.62,,
1306.707,-68.68,,
1306.722,-71.49,,
1306.737,-67.89,,
1306.752,-68.1,,
1306.767,-76.57,,
1306.782,-68.91,,
1306.797,-210.0,,
1306.812,-210.0,,
1306.827,-210.0,,
1306.842,-72.34,,
1306.857,-210.0,,
1306.872,-68.34,,
1306.887,-76.44,,
1306.902,-74.09,,
1306.917,-71.41,,
1306.932,-94.1,,
1306.947,-73.79,,
1306.962,-70.15,,
1306.977,-71.03,,
1306.992,-70.69,,
1307.007,-70.81,,
1307.022,-210.0,,
1307.037,-210.0,,
1307.052,-210.0,,
1307.067,-210.0,,
1307.082,-210.0,,
1307.097,-210.0,,
1307.112,-210.0,,
1307.127,-210.0,,
1307.142,-210.0,,
1307.157,-210.0,,
1307.172,-210.0,,
1307.187,-210.0,,
1307.202,-210.0,,
1307.217,-210.0,,
1307.232,-77.69,,
1307.247,-210.0,,
1307.262,-210.0,,
1307.277,-74.53,,
1307.292,-73.57,,
1307.307,-210.0,,
1307.322,-210.0,,
1307.337,-210.0,,
1307.352,-210.0,,
1307.367,-210.0,,
1307.382,-210.0,,
1307.397,-210.0,,
1307.412,-210.0,,
1307.427,-210.0,,
1307.442,-210.0,,
1307.457,-210.0,,
1307.472,-210.0,,
1307.487,-210.0,,
1307.502,-210.0,,
1307.517,-210.0,,
1307.532,-210.0,,
1307.547,-210.0,,
1307.562,-210.0,,
1307.577,-210.0,,
1307.592,-69.56,,
1307.607,-210.0,,
1307.622,-210.0,,
1307.637,-73.7,,
1307.652,-69.24,,
1307.667,-73.81,,
1307.682,-210.0,,
1307.697,-71.39,,
1307.712,-69.25,,
1307.727,-69.61,,
1307.742,-210.0,,
1307.757,-74.77,,
1307.772,-66.67,,
1307.787,-70.37,,
1307.802,-210.0,,
1307.817,-69.18,,
1307.832,-66.52,,
1307.847,-68.01,,
1307.862,-68.8,,
1307.877,-76.36,,
1307.892,-66.6,,
1307.907,-65.9,,
1307.922,-72.34,,
1307.937,-70.9,,
1307.952,-65.93,,
1307.967,-67.49,,
1307.982,-77.48,,
1307.997,-210.0,,
1308.012,-210.0,,
1308.027,-68.84,,
1308.042,-72.37,,
1308.057,-210.0,,
1308.072,-72.35,,
1308.087,-68.6,,
1308.102,-210.0,,
1308.117,-210.0,,
1308.132,-69.83,,
1308.147,-72.32,,
1308.162,-210.0,,
1308.177,-210.0,,
1308.192,-210.0,,
1308.207,-210.0,,
1308.222,-210.0,,
1308.237,-210.0,,
1308.252,-210.0,,
1308.267,-210.0,,
1308.282,-210.0,,
1308.297,-210.0,,
1308.312,-210.0,,
1308.327,-210.0,,
1308.342,-210.0,,
1308.357,-210.0,,
1308.372,-210.0,,
1308.387,-210.0,,
1308.402,-210.0,,
1308.417,-210.0,,
1308.432,-210.0,,
1308.447,-210.0,,
1308.462,-210.0,,
1308.477,-210.0,,
1308.492,-210.0,,
1308.507,-210.0,,
1308.522,-210.0,,
1308.537,-210.0,,
1308.552,-210.0,,
1308.567,-210.0,,
1308.582,-210.0,,
1308.597,-210.0,,
1308.612,-210.0,,
1308.627,-210.0,,
1308.642,-210.0,,
1308.657,-210.0,,
1308.672,-210.0,,
1308.687,-210.0,,
1308.702,-210.0,,
1308.717,-210.0,,
1308.732,-210.0,,
1308.747,-210.0,,
1308.762,-210.0,,
1308.777,-210.0,,
1308.792,-210.0,,
1308.807,-210.0,,
1308.822,-210.0,,
1308.837,-210.0,,
1308.852,-210.0,,
1308.867,-210.0,,
1308.882,-210.0,,
1308.897,-210.0,,
1308.912,-210.0,,
1308.927,-210.0,,
1308.942,-210.0,,
1308.957,-210.0,,
1308.972,-210.0,,
1308.987,-210.0,,
1309.002,-210.0,,
1309.017,-210.0,,
1309.032,-210.0,,
1309.047,-210.0,,
1309.062,-210.0,,
1309.077,-210.0,,
1309.092,-210.0,,
1309.107,-210.0,,
1309.122,-210.0,,
1309.137,-210.0,,
1309.152,-210.0,,
1309.167,-210.0,,
1309.182,-210.0,,
1309.198,-210.0,,
1309.212,-210.0,,
1309.227,-210.0,,
1309.242,-210.0,,
1309.257,-210.0,,
1309.272,-210.0,,
1309.287,-210.0,,
1309.302,-210.0,,
1309.318,-210.0,,
1309.333,-210.0,,
1309.347,-210.0,,
1309.362,-210.0,,
1309.377,-72.3,,
1309.392,-210.0,,
1309.407,-210.0,,
1309.422,-72.71,,
1309.438,-70.6,,
1309.453,-77.78,,
1309.468,-210.0,,
1309.483,-80.52,,
1309.497,-78.52,,
1309.512,-210.0,,
1309.527,-210.0,,
1309.542,-70.82,,
1309.557,-67.83,,
1309.573,-81.69,,
1309.588,-210.0,,
1309.603,-210.0,,
1309.618,-78.4,,
1309.632,-210.0,,
1309.647,-210.0,,
1309.662,-210.0,,
1309.677,-76.4,,
1309.693,-210.0,,
1309.708,-210.0,,
1309.723,-210.0,,
1309.738,-71.21,,
1309.753,-210.0,,
1309.768,-210.0,,
1309.782,-210.0,,
1309.797,-210.0,,
1309.813,-210.0,,
1309.828,-210.0,,
1309.843,-210.0,,
1309.858,-210.0,,
1309.873,-210.0,,
1309.888,-210.0,,
1309.903,-210.0,,
1309.917,-210.0,,
1309.932,-210.0,,
1309.948,-210.0,,
1309.963,-210.0,,
1309.978,-210.0,,
1309.993,-210.0,,
1310.008,-210.0,,
1310.023,-210.0,,
1310.038,-210.0,,
1310.053,-210.0,,
1310.068,-210.0,,
1310.083,-210.0,,
1310.098,-210.0,,
1310.113,-210.0,,
1310.128,-210.0,,
1310.143,-210.0,,
1310.158,-210.0,,
1310.173,-210.0,,
1310.188,-210.0,,
1310.203,-210.0,,
1310.218,-210.0,,
1310.233,-210.0,,
1310.248,-210.0,,
1310.263,-210.0,,
1310.278,-210.0,,
1310.293,-210.0,,
1310.308,-210.0,,
1310.323,-210.0,,
1310.338,-210.0,,
1310.353,-210.0,,
1310.368,-210.0,,
1310.383,-210.0,,
1310.398,-210.0,,
1310.413,-210.0,,
1310.428,-210.0,,
1310.443,-210.0,,
1310.458,-210.0,,
1310.473,-210.0,,
1310.488,-210.0,,
1310.503,-210.0,,
1310.518,-210.0,,
1310.533,-210.0,,
1310.548,-210.0,,
1310.563,-210.0,,
1310.578,-210.0,,
1310.593,-210.0,,
1310.608,-210.0,,
1310.623,-210.0,,
1310.638,-210.0,,
1310.653,-210.0,,
1310.668,-70.29,,
1310.683,-210.0,,
1310.698,-210.0,,
1310.713,-74.07,,
1310.728,-70.31,,
1310.743,-210.0,,
1310.758,-210.0,,
1310.773,-73.76,,
1310.788,-68.84,,
1310.803,-210.0,,
1310.818,-210.0,,
1310.833,-72.13,,
1310.848,-67.21,,
1310.863,-70.05,,
1310.878,-210.0,,
1310.893,-69.02,,
1310.908,-65.65,,
1310.923,-68.93,,
1310.938,-70.05,,
1310.953,-65.06,,
1310.968,-64.0,,
1310.983,-65.49,,
1310.998,-66.35,,
1311.013,-65.62,,
1311.028,-63.69,,
1311.043,-64.47,,
1311.058,-67.38,,
1311.073,-65.52,,
1311.088,-64.02,,
1311.103,-65.73,,
1311.118,-66.84,,
1311.133,-67.51,,
1311.148,-66.01,,
1311.163,-66.66,,
1311.178,-67.72,,
1311.193,-70.2,,
1311.208,-65.06,,
1311.223,-64.68,,
1311.238,-68.04,,
1311.253,-66.08,,
1311.268,-63.9,,
1311.283,-65.48,,
1311.298,-66.99,,
1311.313,-67.27,,
1311.328,-65.8,,
1311.343,-66.38,,
1311.358,-67.71,,
1311.373,-75.0,,
1311.388,-66.3,,
1311.403,-65.25,,
1311.418,-70.42,,
1311.433,-71.74,,
1311.448,-66.97,,
1311.463,-68.34,,
1311.478,-79.7,,
1311.493,-75.83,,
1311.508,-68.72,,
1311.523,-68.39,,
1311.538,-70.73,,
1311.553,-210.0,,
1311.568,-67.22,,
1311.583,-66.05,,
1311.598,-70.01,,
1311.613,-72.58,,
1311.628,-65.99,,
1311.643,-66.22,,
1311.658,-79.61,,
1311.673,-210.0,,
1311.688,-70.89,,
1311.703,-68.52,,
1311.718,-210.0,,
1311.733,-210.0,,
1311.748,-210.0,,
1311.763,-76.1,,
1311.778,-210.0,,
1311.793,-210.0,,
1311.808,-210.0,,
1311.823,-210.0,,
1311.838,-210.0,,
1311.853,-210.0,,
1311.868,-210.0,,
1311.883,-210.0,,
1311.898,-210.0,,
1311.913,-210.0,,
1311.928,-210.0,,
1311.943,-210.0,,
1311.958,-210.0,,
1311.973,-210.0,,
1311.988,-210.0,,
1312.003,-210.0,,
1312.018,-210.0,,
1312.033,-210.0,,
1312.048,-210.0,,
1312.063,-210.0,,
1312.078,-210.0,,
1312.093,-210.0,,
1312.108,-210.0,,
1312.123,-210.0,,
1312.138,-210.0,,
1312.153,-210.0,,
1312.168,-210.0,,
1312.183,-210.0,,
1312.198,-210.0,,
1312.213,-210.0,,
1312.228,-210.0,,
1312.243,-210.0,,
1312.258,-210.0,,
1312.273,-210.0,,
1312.288,-210.0,,
1312.303,-210.0,,
1312.318,-210.0,,
1312.333,-210.0,,
1312.348,-210.0,,
1312.363,-210.0,,
1312.378,-210.0,,
1312.393,-210.0,,
1312.408,-210.0,,
1312.423,-210.0,,
1312.438,-210.0,,
1312.453,-210.0,,
1312.468,-210.0,,
1312.483,-210.0,,
1312.498,-210.0,,
1312.513,-210.0,,
1312.528,-210.0,,
1312.543,-210.0,,
1312.558,-210.0,,
1312.573,-210.0,,
1312.588,-210.0,,
1312.603,-210.0,,
1312.618,-210.0,,
1312.633,-210.0,,
1312.648,-210.0,,
1312.663,-210.0,,
1312.678,-210.0,,
1312.693,-210.0,,
1312.708,-210.0,,
1312.723,-210.0,,
1312.738,-210.0,,
1312.753,-210.0,,
1312.768,-210.0,,
1312.783,-210.0,,
1312.798,-210.0,,
1312.813,-210.0,,
1312.828,-210.0,,
1312.843,-210.0,,
1312.858,-210.0,,
1312.873,-210.0,,
1312.888,-210.0,,
1312.903,-210.0,,
1312.918,-210.0,,
1312.933,-210.0,,
1312.948,-210.0,,
1312.963,-210.0,,
1312.978,-210.0,,
1312.993,-210.0,,
1313.008,-210.0,,
1313.023,-210.0,,
1313.038,-210.0,,
1313.053,-210.0,,
1313.068,-210.0,,
1313.083,-210.0,,
1313.098,-78.97,,
1313.113,-210.0,,
1313.128,-210.0,,
1313.143,-210.0,,
1313.158,-210.0,,
1313.173,-210.0,,
1313.188,-210.0,,
1313.203,-210.0,,
1313.218,-210.0,,
1313.233,-210.0,,
1313.248,-210.0,,
1313.263,-210.0,,
1313.278,-210.0,,
1313.293,-210.0,,
1313.308,-210.0,,
1313.323,-210.0,,
1313.338,-210.0,,
1313.353,-210.0,,
1313.368,-210.0,,
1313.383,-210.0,,
1313.398,-210.0,,
1313.413,-210.0,,
1313.428,-210.0,,
1313.443,-210.0,,
1313.458,-210.0,,
1313.473,-210.0,,
1313.488,-210.0,,
1313.503,-210.0,,
1313.518,-210.0,,
1313.533,-210.0,,
1313.548,-210.0,,
1313.563,-210.0,,
1313.578,-210.0,,
1313.593,-210.0,,
1313.608,-210.0,,
1313.623,-210.0,,
1313.638,-210.0,,
1313.653,-210.0,,
1313.668,-210.0,,
1313.683,-210.0,,
1313.698,-210.0,,
1313.713,-210.0,,
1313.728,-210.0,,
1313.743,-210.0,,
1313.758,-77.44,,
1313.773,-210.0,,
1313.788,-210.0,,
1313.803,-74.75,,
1313.818,-73.59,,
1313.833,-210.0,,
1313.848,-210.0,,
1313.863,-210.0,,
1313.878,-71.36,,
1313.893,-210.0,,
1313.908,-210.0,,
1313.923,-210.0,,
1313.938,-71.89,,
1313.953,-210.0,,
1313.968,-210.0,,
1313.983,-210.0,,
1313.998,-71.88,,
1314.013,-210.0,,
1314.028,-210.0,,
1314.043,-73.43,,
1314.058,-71.08,,
1314.073,-70.91,,
1314.088,-70.28,,
1314.103,-70.54,,
1314.118,-67.76,,
1314.133,-69.31,,
1314.148,-68.14,,
1314.163,-68.44,,
1314.178,-71.36,,
1314.193,-69.06,,
1314.208,-69.13,,
1314.223,-67.37,,
1314.238,-65.15,,
1314.253,-68.01,,
1314.268,-72.61,,
1314.283,-67.4,,
1314.298,-66.01,,
1314.313,-67.04,,
1314.328,-66.23,,
1314.343,-66.23,,
1314.358,-65.84,,
1314.373,-66.09,,
1314.388,-70.53,,
1314.403,-66.27,,
1314.418,-63.96,,
1314.433,-67.22,,
1314.448,-69.97,,
1314.463,-66.53,,
1314.478,-65.51,,
1314.493,-70.67,,
1314.508,-76.43,,
1314.523,-73.1,,
1314.538,-70.61,,
1314.553,-83.14,,
1314.568,-74.88,,
1314.583,-71.64,,
1314.598,-66.32,,
1314.613,-68.02,,
1314.628,-70.61,,
1314.643,-67.52,,
1314.658,-65.85,,
1314.673,-69.33,,
1314.688,-68.41,,
1314.703,-68.42,,
1314.718,-66.93,,
1314.733,-69.36,,
1314.748,-68.11,,
1314.763,-67.6,,
1314.778,-68.3,,
1314.793,-72.73,,
1314.808,-210.0,,
1314.823,-69.54,,
1314.838,-67.57,,
1314.853,-73.37,,
1314.868,-75.0,,
1314.883,-210.0,,
1314.898,-73.18,,
1314.913,-210.0,,
1314.928,-210.0,,
1314.943,-80.63,,
1314.958,-72.01,,
1314.973,-210.0,,
1314.988,-78.13,,
1315.003,-72.77,,
1315.018,-66.75,,
1315.033,-73.59,,
1315.048,-210.0,,
1315.063,-210.0,,
1315.078,-71.07,,
1315.093,-210.0,,
1315.108,-210.0,,
1315.123,-210.0,,
1315.138,-210.0,,
1315.153,-210.0,,
1315.168,-210.0,,
1315.183,-72.52,,
1315.198,-210.0,,
1315.213,-210.0,,
1315.228,-210.0,,
1315.243,-210.0,,
1315.258,-78.2,,
1315.273,-210.0,,
1315.288,-210.0,,
1315.303,-210.0,,
1315.318,-210.0,,
1315.333,-210.0,,
1315.348,-210.0,,
1315.363,-210.0,,
1315.378,-210.0,,
1315.393,-210.0,,
1315.408,-210.0,,
1315.423,-210.0,,
1315.438,-210.0,,
1315.453,-210.0,,
1315.468,-210.0,,
1315.483,-210.0,,
1315.498,-210.0,,
1315.513,-210.0,,
1315.528,-210.0,,
1315.543,-210.0,,
1315.558,-210.0,,
1315.573,-210.0,,
1315.588,-210.0,,
1315.603,-210.0,,
1315.618,-210.0,,
1315.633,-210.0,,
1315.648,-210.0,,
1315.663,-210.0,,
1315.678,-210.0,,
1315.693,-210.0,,
1315.708,-210.0,,
1315.723,-210.0,,
1315.738,-210.0,,
1315.753,-210.0,,
1315.768,-210.0,,
1315.783,-210.0,,
1315.798,-210.0,,
1315.813,-210.0,,
1315.828,-210.0,,
1315.843,-210.0,,
1315.858,-210.0,,
1315.873,-210.0,,
1315.888,-210.0,,
1315.903,-210.0,,
1315.918,-210.0,,
1315.933,-210.0,,
1315.948,-210.0,,
1315.963,-210.0,,
1315.978,-210.0,,
1315.993,-210.0,,
1316.008,-210.0,,
1316.023,-210.0,,
1316.038,-210.0,,
1316.053,-210.0,,
1316.068,-210.0,,
1316.083,-210.0,,
1316.098,-210.0,,
1316.113,-210.0,,
1316.128,-210.0,,
1316.143,-210.0,,
1316.158,-210.0,,
1316.173,-210.0,,
1316.188,-210.0,,
1316.203,-210.0,,
1316.218,-210.0,,
1316.233,-210.0,,
1316.248,-210.0,,
1316.263,-210.0,,
1316.278,-210.0,,
1316.293,-210.0,,
1316.308,-210.0,,
1316.323,-210.0,,
1316.338,-210.0,,
1316.353,-210.0,,
1316.368,-210.0,,
1316.383,-210.0,,
1316.398,-210.0,,
1316.413,-210.0,,
1316.428,-210.0,,
1316.443,-210.0,,
1316.458,-210.0,,
1316.473,-210.0,,
1316.488,-210.0,,
1316.503,-210.0,,
1316.518,-210.0,,
1316.533,-210.0,,
1316.548,-210.0,,
1316.563,-210.0,,
1316.578,-210.0,,
1316.593,-210.0,,
1316.608,-210.0,,
1316.623,-210.0,,
1316.638,-210.0,,
1316.653,-210.0,,
1316.668,-210.0,,
1316.683,-210.0,,
1316.698,-210.0,,
1316.713,-210.0,,
1316.728,-210.0,,
1316.743,-210.0,,
1316.758,-210.0,,
1316.773,-210.0,,
1316.788,-210.0,,
1316.803,-210.0,,
1316.818,-210.0,,
1316.833,-210.0,,
1316.848,-210.0,,
1316.863,-210.0,,
1316.878,-210.0,,
1316.893,-210.0,,
1316.908,-210.0,,
1316.923,-210.0,,
1316.938,-210.0,,
1316.953,-210.0,,
1316.968,-210.0,,
1316.983,-210.0,,
1316.998,-210.0,,
1317.013,-210.0,,
1317.028,-210.0,,
1317.043,-210.0,,
1317.058,-210.0,,
1317.073,-210.0,,
1317.088,-210.0,,
1317.103,-210.0,,
1317.118,-210.0,,
1317.133,-210.0,,
1317.148,-210.0,,
1317.163,-210.0,,
1317.178,-210.0,,
1317.193,-210.0,,
1317.208,-210.0,,
1317.224,-210.0,,
1317.238,-210.0,,
1317.253,-210.0,,
1317.268,-210.0,,
1317.283,-210.0,,
1317.298,-210.0,,
1317.313,-73.77,,
1317.328,-210.0,,
1317.344,-210.0,,
1317.359,-210.0,,
1317.373,-210.0,,
1317.388,-210.0,,
1317.403,-210.0,,
1317.418,-210.0,,
1317.433,-77.83,,
1317.448,-210.0,,
1317.464,-210.0,,
1317.479,-73.16,,
1317.494,-71.3,,
1317.509,-210.0,,
1317.523,-78.7,,
1317.538,-67.91,,
1317.553,-69.82,,
1317.568,-210.0,,
1317.583,-78.57,,
1317.599,-68.52,,
1317.614,-68.73,,
1317.629,-76.52,,
1317.644,-77.08,,
1317.658,-70.47,,
1317.673,-71.78,,
1317.688,-210.0,,
1317.703,-70.73,,
1317.719,-68.94,,
1317.734,-83.17,,
1317.749,-78.43,,
1317.764,-70.4,,
1317.779,-69.28,,
1317.794,-70.47,,
1317.808,-210.0,,
1317.823,-210.0,,
1317.839,-74.16,,
1317.854,-69.81,,
1317.869,-70.1,,
1317.884,-69.4,,
1317.899,-69.02,,
1317.914,-70.09,,
1317.929,-69.67,,
1317.944,-68.27,,
1317.958,-69.51,,
1317.974,-210.0,,
1317.989,-72.86,,
1318.004,-70.72,,
1318.019,-70.83,,
1318.034,-66.06,,
1318.049,-66.26,,
1318.064,-68.64,,
1318.079,-66.76,,
1318.094,-67.98,,
1318.109,-69.64,,
1318.124,-70.39,,
1318.139,-71.56,,
1318.154,-69.94,,
1318.169,-69.7,,
1318.184,-67.04,,
1318.199,-67.64,,
1318.214,-68.12,,
1318.229,-67.73,,
1318.244,-66.67,,
1318.259,-69.3,,
1318.274,-66.84,,
1318.289,-66.62,,
1318.304,-67.68,,
1318.319,-68.12,,
1318.334,-67.73,,
1318.349,-69.37,,
1318.364,-65.71,,
1318.379,-65.49,,
1318.394,-67.63,,
1318.409,-66.75,,
1318.424,-65.4,,
1318.439,-65.96,,
1318.454,-67.3,,
1318.469,-66.0,,
1318.484,-66.89,,
1318.499,-67.68,,
1318.514,-65.79,,
1318.529,-67.08,,
1318.544,-67.57,,
1318.559,-67.24,,
1318.574,-66.15,,
1318.589,-68.25,,
1318.604,-68.18,,
1318.619,-69.81,,
1318.634,-70.11,,
1318.649,-67.98,,
1318.664,-65.92,,
1318.679,-67.89,,
1318.694,-68.6,,
1318.709,-66.2,,
1318.724,-66.71,,
1318.739,-66.67,,
1318.754,-65.92,,
1318.769,-67.08,,
1318.784,-67.03,,
1318.799,-66.41,,
1318.814,-66.68,,
1318.829,-66.13,,
1318.844,-65.26,,
1318.859,-67.05,,
1318.874,-71.56,,
1318.889,-67.01,,
1318.904,-67.21,,
1318.919,-74.61,,
1318.934,-73.5,,
1318.949,-68.7,,
1318.964,-68.71,,
1318.979,-74.67,,
1318.994,-69.22,,
1319.009,-71.27,,
1319.024,-68.81,,
1319.039,-76.35,,
1319.054,-210.0,,
1319.069,-71.58,,
1319.084,-74.85,,
1319.099,-210.0,,
1319.114,-210.0,,
1319.129,-70.61,,
1319.144,-77.43,,
1319.159,-210.0,,
1319.174,-210.0,,
1319.189,-76.72,,
1319.204,-210.0,,
1319.219,-210.0,,
1319.234,-210.0,,
1319.249,-210.0,,
1319.264,-210.0,,
1319.279,-210.0,,
1319.294,-210.0,,
1319.309,-210.0,,
1319.324,-210.0,,
1319.339,-210.0,,
1319.354,-210.0,,
1319.369,-210.0,,
1319.384,-210.0,,
1319.399,-210.0,,
1319.414,-210.0,,
1319.429,-210.0,,
1319.444,-210.0,,
1319.459,-210.0,,
1319.474,-210.0,,
1319.489,-210.0,,
1319.504,-210.0,,
1319.519,-210.0,,
1319.534,-210.0,,
1319.549,-210.0,,
1319.564,-210.0,,
1319.579,-210.0,,
1319.594,-210.0,,
1319.609,-210.0,,
1319.624,-210.0,,
1319.639,-210.0,,
1319.654,-210.0,,
1319.669,-210.0,,
1319.684,-210.0,,
1319.699,-210.0,,
1319.714,-210.0,,
1319.729,-210.0,,
1319.744,-210.0,,
1319.759,-210.0,,
1319.774,-210.0,,
1319.789,-210.0,,
1319.804,-210.0,,
1319.819,-210.0,,
1319.834,-210.0,,
1319.849,-210.0,,
1319.864,-210.0,,
1319.879,-210.0,,
1319.894,-210.0,,
1319.909,-210.0,,
1319.924,-210.0,,
1319.939,-210.0,,
1319.954,-210.0,,
1319.969,-210.0,,
1319.984,-210.0,,
1319.999,-210.0,,
1320.014,-210.0,,
1320.029,-210.0,,
1320.044,-210.0,,
1320.059,-210.0,,
1320.074,-210.0,,
1320.089,-210.0,,
1320.104,-210.0,,
1320.119,-210.0,,
1320.134,-210.0,,
1320.149,-210.0,,
1320.164,-210.0,,
1320.179,-210.0,,
1320.194,-210.0,,
1320.209,-210.0,,
1320.224,-210.0,,
1320.239,-210.0,,
1320.254,-210.0,,
1320.269,-210.0,,
1320.284,-210.0,,
1320.299,-210.0,,
1320.314,-210.0,,
1320.329,-210.0,,
1320.344,-210.0,,
1320.359,-210.0,,
1320.374,-210.0,,
1320.389,-210.0,,
1320.404,-210.0,,
1320.419,-210.0,,
1320.434,-210.0,,
1320.449,-210.0,,
1320.464,-210.0,,
1320.479,-210.0,,
1320.494,-210.0,,
1320.509,-210.0,,
1320.524,-210.0,,
1320.539,-210.0,,
1320.554,-210.0,,
1320.569,-210.0,,
1320.584,-210.0,,
1320.599,-210.0,,
1320.614,-210.0,,
1320.629,-210.0,,
1320.644,-210.0,,
1320.659,-210.0,,
1320.674,-210.0,,
1320.689,-210.0,,
1320.704,-210.0,,
1320.719,-210.0,,
1320.734,-210.0,,
1320.749,-210.0,,
1320.764,-210.0,,
1320.779,-210.0,,
1320.794,-210.0,,
1320.809,-210.0,,
1320.824,-210.0,,
1320.839,-210.0,,
1320.854,-210.0,,
1320.869,-210.0,,
1320.884,-210.0,,
1320.899,-210.0,,
1320.914,-210.0,,
1320.929,-210.0,,
1320.944,-210.0,,
1320.959,-210.0,,
1320.974,-210.0,,
1320.989,-210.0,,
1321.004,-210.0,,
1321.019,-210.0,,
1321.034,-210.0,,
1321.049,-210.0,,
1321.064,-210.0,,
1321.079,-210.0,,
1321.094,-210.0,,
1321.109,-210.0,,
1321.124,-210.0,,
1321.139,-210.0,,
1321.154,-210.0,,
1321.169,-210.0,,
1321.184,-210.0,,
1321.199,-210.0,,
1321.214,-210.0,,
1321.229,-210.0,,
1321.244,-210.0,,
1321.259,-210.0,,
1321.274,-210.0,,
1321.289,-210.0,,
1321.304,-210.0,,
1321.319,-210.0,,
1321.334,-210.0,,
1321.349,-210.0,,
1321.364,-210.0,,
1321.379,-210.0,,
1321.394,-210.0,,
1321.409,-210.0,,
1321.424,-210.0,,
1321.439,-210.0,,
1321.454,-210.0,,
1321.469,-70.46,,
1321.484,-210.0,,
1321.499,-210.0,,
1321.514,-74.0,,
1321.529,-72.61,,
1321.544,-210.0,,
1321.559,-210.0,,
1321.574,-70.11,,
1321.589,-210.0,,
1321.604,-210.0,,
1321.619,-76.51,,
1321.634,-70.59,,
1321.649,-78.82,,
1321.664,-210.0,,
1321.679,-74.76,,
1321.694,-69.45,,
1321.709,-70.66,,
1321.724,-210.0,,
1321.739,-210.0,,
1321.754,-70.79,,
1321.769,-68.08,,
1321.784,-72.02,,
1321.799,-72.67,,
1321.814,-67.06,,
1321.829,-67.62,,
1321.844,-210.0,,
1321.859,-70.17,,
1321.874,-67.36,,
1321.889,-68.9,,
1321.904,-74.8,,
1321.919,-66.75,,
1321.934,-66.96,,
1321.949,-72.26,,
1321.964,-72.7,,
1321.979,-66.75,,
1321.994,-67.31,,
1322.009,-78.5,,
1322.024,-67.28,,
1322.039,-67.3,,
1322.054,-66.94,,
1322.069,-66.41,,
1322.084,-68.13,,
1322.099,-63.95,,
1322.114,-63.78,,
1322.129,-65.19,,
1322.144,-65.47,,
1322.159,-63.58,,
1322.174,-64.14,,
1322.189,-65.98,,
1322.204,-65.03,,
1322.219,-64.24,,
1322.234,-65.36,,
1322.249,-66.73,,
1322.264,-65.5,,
1322.279,-64.9,,
1322.294,-65.49,,
1322.309,-63.83,,
1322.324,-65.02,,
1322.339,-65.45,,
1322.354,-64.57,,
1322.369,-63.28,,
1322.384,-64.54,,
1322.399,-64.5,,
1322.414,-63.3,,
1322.429,-63.19,,
1322.444,-64.59,,
1322.459,-63.82,,
1322.474,-64.49,,
1322.489,-65.49,,
1322.504,-64.36,,
1322.519,-63.89,,
1322.534,-64.96,,
1322.549,-64.82,,
1322.564,-64.48,,
1322.579,-64.93,,
1322.594,-65.64,,
1322.609,-64.65,,
1322.624,-65.78,,
1322.639,-65.47,,
1322.654,-65.33,,
1322.669,-65.64,,
1322.684,-64.88,,
1322.699,-65.01,,
1322.714,-65.69,,
1322.729,-66.16,,
1322.744,-64.92,,
1322.759,-64.57,,
1322.774,-68.22,,
1322.789,-71.35,,
1322.804,-65.8,,
1322.819,-65.39,,
1322.834,-72.75,,
1322.849,-68.11,,
1322.864,-65.87,,
1322.879,-67.09,,
1322.894,-74.04,,
1322.909,-67.23,,
1322.924,-66.41,,
1322.939,-70.53,,
1322.954,-70.75,,
1322.969,-66.61,,
1322.984,-66.24,,
1322.999,-66.69,,
1323.014,-66.71,,
1323.029,-68.11,,
1323.044,-65.69,,
1323.059,-68.64,,
1323.074,-210.0,,
1323.089,-67.38,,
1323.104,-67.77,,
1323.119,-67.99,,
1323.134,-72.46,,
1323.149,-66.1,,
1323.164,-67.74,,
1323.179,-75.25,,
1323.194,-210.0,,
1323.209,-68.22,,
1323.224,-67.66,,
1323.239,-210.0,,
1323.254,-210.0,,
1323.269,-68.12,,
1323.284,-71.72,,
1323.299,-210.0,,
1323.314,-210.0,,
1323.329,-75.51,,
1323.344,-84.22,,
1323.359,-210.0,,
1323.374,-210.0,,
1323.389,-210.0,,
1323.404,-210.0,,
1323.419,-210.0,,
1323.434,-210.0,,
1323.449,-210.0,,
1323.464,-210.0,,
1323.479,-210.0,,
1323.494,-210.0,,
1323.509,-210.0,,
1323.524,-210.0,,
1323.539,-210.0,,
1323.554,-210.0,,
1323.569,-210.0,,
1323.584,-210.0,,
1323.599,-210.0,,
1323.614,-210.0,,
1323.629,-210.0,,
1323.644,-210.0,,
1323.659,-210.0,,
1323.674,-210.0,,
1323.689,-210.0,,
1323.704,-210.0,,
1323.719,-210.0,,
1323.734,-210.0,,
1323.749,-210.0,,
1323.764,-210.0,,
1323.779,-210.0,,
1323.794,-210.0,,
1323.809,-210.0,,
1323.824,-210.0,,
1323.839,-210.0,,
1323.854,-210.0,,
1323.869,-210.0,,
1323.884,-210.0,,
1323.899,-210.0,,
1323.914,-81.28,,
1323.929,-210.0,,
1323.944,-210.0,,
1323.959,-210.0,,
1323.974,-210.0,,
1323.989,-210.0,,
1324.004,-210.0,,
1324.019,-210.0,,
1324.034,-210.0,,
1324.049,-210.0,,
1324.064,-210.0,,
1324.079,-210.0,,
1324.094,-210.0,,
1324.109,-210.0,,
1324.124,-210.0,,
1324.139,-210.0,,
1324.154,-210.0,,
1324.169,-210.0,,
1324.184,-210.0,,
1324.199,-71.63,,
1324.214,-210.0,,
1324.229,-210.0,,
1324.244,-81.53,,
1324.259,-68.89,,
1324.274,-210.0,,
1324.289,-210.0,,
1324.304,-69.94,,
1324.319,-68.47,,
1324.334,-210.0,,
1324.349,-77.15,,
1324.364,-68.8,,
1324.379,-66.21,,
1324.394,-68.71,,
1324.409,-70.89,,
1324.424,-67.22,,
1324.439,-66.44,,
1324.454,-72.55,,
1324.469,-71.06,,
1324.484,-68.56,,
1324.499,-71.32,,
1324.514,-210.0,,
1324.529,-210.0,,
1324.544,-69.96,,
1324.559,-72.51,,
1324.574,-210.0,,
1324.589,-210.0,,
1324.604,-71.44,,
1324.619,-210.0,,
1324.634,-210.0,,
1324.649,-79.89,,
1324.664,-210.0,,
1324.679,-210.0,,
1324.694,-210.0,,
1324.709,-83.18,,
1324.724,-210.0,,
1324.739,-210.0,,
1324.754,-210.0,,
1324.769,-210.0,,
1324.784,-210.0,,
1324.799,-210.0,,
1324.814,-210.0,,
1324.829,-76.23,,
1324.844,-210.0,,
1324.859,-210.0,,
1324.874,-210.0,,
1324.889,-68.79,,
1324.904,-69.69,,
1324.919,-210.0,,
1324.934,-74.52,,
1324.949,-68.41,,
1324.964,-71.63,,
1324.979,-210.0,,
1324.994,-69.09,,
1325.009,-69.66,,
1325.024,-210.0,,
1325.039,-210.0,,
1325.054,-68.93,,
1325.069,-72.16,,
1325.084,-210.0,,
1325.099,-71.78,,
1325.114,-69.09,,
1325.129,-76.76,,
1325.144,-210.0,,
1325.159,-210.0,,
1325.174,-71.87,,
1325.189,-84.83,,
1325.204,-210.0,,
1325.219,-87.21,,
1325.234,-76.86,,
1325.25,-210.0,,
1325.264,-210.0,,
1325.279,-210.0,,
1325.294,-70.27,,
1325.309,-210.0,,
1325.324,-210.0,,
1325.339,-72.4,,
1325.354,-70.21,,
1325.37,-210.0,,
1325.385,-210.0,,
1325.4,-70.45,,
1325.414,-68.57,,
1325.429,-210.0,,
1325.444,-210.0,,
1325.459,-67.39,,
1325.474,-68.23,,
1325.49,-77.43,,
1325.505,-67.97,,
1325.52,-64.88,,
1325.535,-66.08,,
1325.549,-69.35,,
1325.564,-67.69,,
1325.579,-64.89,,
1325.594,-67.35,,
1325.609,-68.17,,
1325.625,-67.09,,
1325.64,-65.81,,
1325.655,-69.53,,
1325.67,-68.54,,
1325.685,-65.73,,
1325.699,-65.48,,
1325.714,-67.42,,
1325.729,-72.21,,
1325.745,-66.86,,
1325.76,-65.51,,
1325.775,-67.78,,
1325.79,-71.03,,
1325.805,-66.61,,
1325.82,-67.65,,
1325.834,-210.0,,
1325.849,-72.74,,
1325.865,-67.35,,
1325.88,-70.44,,
1325.895,-210.0,,
1325.91,-210.0,,
1325.925,-74.94,,
1325.94,-210.0,,
1325.955,-210.0,,
1325.97,-210.0,,
1325.984,-72.76,,
1326.0,-210.0,,
1326.015,-210.0,,
1326.03,-210.0,,
1326.045,-70.93,,
1326.06,-210.0,,
1326.075,-210.0,,
1326.09,-71.89,,
1326.105,-83.87,,
1326.12,-210.0,,
1326.135,-210.0,,
1326.15,-69.41,,
1326.165,-210.0,,
1326.18,-210.0,,
1326.195,-76.17,,
1326.21,-210.0,,
1326.225,-210.0,,
1326.24,-210.0,,
1326.255,-70.48,,
1326.27,-74.04,,
1326.285,-210.0,,
1326.3,-210.0,,
1326.315,-210.0,,
1326.33,-81.62,,
1326.345,-210.0,,
1326.36,-210.0,,
1326.375,-210.0,,
1326.39,-74.4,,
1326.405,-210.0,,
1326.42,-210.0,,
1326.435,-210.0,,
1326.45,-210.0,,
1326.465,-210.0,,
1326.48,-210.0,,
1326.495,-210.0,,
1326.51,-210.0,,
1326.525,-210.0,,
1326.54,-210.0,,
1326.555,-210.0,,
1326.57,-210.0,,
1326.585,-210.0,,
1326.6,-210.0,,
1326.615,-210.0,,
1326.63,-210.0,,
1326.645,-210.0,,
1326.66,-210.0,,
1326.675,-210.0,,
1326.69,-210.0,,
1326.705,-210.0,,
1326.72,-210.0,,
1326.735,-210.0,,
1326.75,-210.0,,
1326.765,-210.0,,
1326.78,-210.0,,
1326.795,-210.0,,
1326.81,-210.0,,
1326.825,-210.0,,
1326.84,-210.0,,
1326.855,-210.0,,
1326.87,-210.0,,
1326.885,-210.0,,
1326.9,-210.0,,
1326.915,-210.0,,
1326.93,-210.0,,
1326.945,-210.0,,
1326.96,-210.0,,
1326.975,-210.0,,
1326.99,-210.0,,
1327.005,-210.0,,
1327.02,-210.0,,
1327.035,-210.0,,
1327.05,-210.0,,
1327.065,-210.0,,
1327.08,-210.0,,
1327.095,-210.0,,
1327.11,-210.0,,
1327.125,-210.0,,
1327.14,-210.0,,
1327.155,-210.0,,
1327.17,-210.0,,
1327.185,-210.0,,
1327.2,-210.0,,
1327.215,-210.0,,
1327.23,-210.0,,
1327.245,-210.0,,
1327.26,-210.0,,
1327.275,-210.0,,
1327.29,-210.0,,
1327.305,-210.0,,
1327.32,-210.0,,
1327.335,-210.0,,
1327.35,-210.0,,
1327.365,-210.0,,
1327.38,-210.0,,
1327.395,-210.0,,
1327.41,-210.0,,
1327.425,-210.0,,
1327.44,-210.0,,
1327.455,-210.0,,
1327.47,-210.0,,
1327.485,-210.0,,
1327.5,-210.0,,
1327.515,-210.0,,
1327.53,-210.0,,
1327.545,-210.0,,
1327.56,-210.0,,
1327.575,-210.0,,
1327.59,-210.0,,
1327.605,-210.0,,
1327.62,-210.0,,
1327.635,-210.0,,
1327.65,-210.0,,
1327.665,-210.0,,
1327.68,-210.0,,
1327.695,-210.0,,
1327.71,-210.0,,
1327.725,-210.0,,
1327.74,-75.05,,
1327.755,-210.0,,
1327.77,-210.0,,
1327.785,-210.0,,
1327.8,-80.07,,
1327.815,-210.0,,
1327.83,-210.0,,
1327.845,-210.0,,
1327.86,-210.0,,
1327.875,-210.0,,
1327.89,-210.0,,
1327.905,-71.35,,
1327.92,-210.0,,
1327.935,-210.0,,
1327.95,-76.67,,
1327.965,-210.0,,
1327.98,-210.0,,
1327.995,-210.0,,
1328.01,-210.0,,
1328.025,-210.0,,
1328.04,-210.0,,
1328.055,-210.0,,
1328.07,-210.0,,
1328.085,-210.0,,
1328.1,-210.0,,
1328.115,-210.0,,
1328.13,-210.0,,
1328.145,-210.0,,
1328.16,-210.0,,
1328.175,-210.0,,
1328.19,-210.0,,
1328.205,-210.0,,
1328.22,-210.0,,
1328.235,-210.0,,
1328.25,-74.52,,
1328.265,-210.0,,
1328.28,-210.0,,
1328.295,-210.0,,
1328.31,-76.16,,
1328.325,-210.0,,
1328.34,-210.0,,
1328.355,-75.42,,
1328.37,-85.88,,
1328.385,-210.0,,
1328.4,-210.0,,
1328.415,-74.55,,
1328.43,-210.0,,
1328.445,-210.0,,
1328.46,-80.0,,
1328.475,-74.48,,
1328.49,-210.0,,
1328.505,-210.0,,
1328.52,-74.41,,
1328.535,-77.25,,
1328.55,-210.0,,
1328.565,-210.0,,
1328.58,-210.0,,
1328.595,-210.0,,
1328.61,-210.0,,
1328.625,-210.0,,
1328.64,-210.0,,
1328.655,-210.0,,
1328.67,-210.0,,
1328.685,-210.0,,
1328.7,-210.0,,
1328.715,-210.0,,
1328.73,-210.0,,
1328.745,-210.0,,
1328.76,-210.0,,
1328.775,-210.0,,
1328.79,-210.0,,
1328.805,-210.0,,
1328.82,-210.0,,
1328.835,-210.0,,
1328.85,-210.0,,
1328.865,-210.0,,
1328.88,-73.47,,
1328.895,-210.0,,
1328.91,-210.0,,
1328.925,-72.05,,
1328.94,-210.0,,
1328.955,-210.0,,
1328.97,-210.0,,
1328.985,-75.76,,
1329.0,-210.0,,
1329.015,-210.0,,
1329.03,-74.25,,
1329.045,-210.0,,
1329.06,-210.0,,
1329.075,-210.0,,
1329.09,-71.68,,
1329.105,-210.0,,
1329.12,-210.0,,
1329.135,-83.63,,
1329.15,-72.01,,
1329.165,-210.0,,
1329.18,-79.69,,
1329.195,-210.0,,
1329.21,-210.0,,
1329.225,-210.0,,
1329.24,-210.0,,
1329.255,-210.0,,
1329.27,-210.0,,
1329.285,-210.0,,
1329.3,-210.0,,
1329.315,-210.0,,
1329.33,-210.0,,
1329.345,-210.0,,
1329.36,-210.0,,
1329.375,-210.0,,
1329.39,-210.0,,
1329.405,-210.0,,
1329.42,-210.0,,
1329.435,-77.66,,
1329.45,-210.0,,
1329.465,-210.0,,
1329.48,-210.0,,
1329.495,-210.0,,
1329.51,-210.0,,
1329.525,-210.0,,
1329.54,-210.0,,
1329.555,-210.0,,
1329.57,-210.0,,
1329.585,-210.0,,
1329.6,-76.04,,
1329.615,-210.0,,
1329.63,-210.0,,
1329.645,-210.0,,
1329.66,-72.17,,
1329.675,-210.0,,
1329.69,-210.0,,
1329.705,-80.75,,
1329.72,-70.4,,
1329.735,-210.0,,
1329.75,-210.0,,
1329.765,-71.16,,
1329.78,-92.76,,
1329.795,-210.0,,
1329.81,-210.0,,
1329.825,-210.0,,
1329.84,-210.0,,
1329.855,-210.0,,
1329.87,-210.0,,
1329.885,-210.0,,
1329.9,-210.0,,
1329.915,-210.0,,
1329.93,-210.0,,
1329.945,-210.0,,
1329.96,-210.0,,
1329.975,-210.0,,
1329.99,-210.0,,
1330.005,-210.0,,
1330.02,-210.0,,
1330.035,-210.0,,
1330.05,-210.0,,
1330.065,-210.0,,
1330.08,-210.0,,
1330.095,-210.0,,
1330.11,-210.0,,
1330.125,-210.0,,
1330.14,-210.0,,
1330.155,-210.0,,
1330.17,-210.0,,
1330.185,-210.0,,
1330.2,-210.0,,
1330.215,-210.0,,
1330.23,-210.0,,
1330.245,-210.0,,
1330.26,-210.0,,
1330.275,-210.0,,
1330.29,-210.0,,
1330.305,-210.0,,
1330.32,-210.0,,
1330.335,-210.0,,
1330.35,-210.0,,
1330.365,-210.0,,
1330.38,-210.0,,
1330.395,-210.0,,
1330.41,-210.0,,
1330.425,-210.0,,
1330.44,-210.0,,
1330.455,-210.0,,
1330.47,-210.0,,
1330.485,-210.0,,
1330.5,-210.0,,
1330.515,-210.0,,
1330.53,-210.0,,
1330.545,-210.0,,
1330.56,-210.0,,
1330.575,-210.0,,
1330.59,-210.0,,
1330.605,-210.0,,
1330.62,-210.0,,
1330.635,-210.0,,
1330.65,-210.0,,
1330.665,-210.0,,
1330.68,-210.0,,
1330.695,-210.0,,
1330.71,-210.0,,
1330.725,-210.0,,
1330.74,-210.0,,
1330.755,-210.0,,
1330.77,-210.0,,
1330.785,-210.0,,
1330.8,-210.0,,
1330.815,-210.0,,
1330.83,-210.0,,
1330.845,-210.0,,
1330.86,-210.0,,
1330.875,-210.0,,
1330.89,-210.0,,
1330.905,-210.0,,
1330.92,-210.0,,
1330.935,-210.0,,
1330.95,-210.0,,
1330.965,-210.0,,
1330.98,-210.0,,
1330.995,-210.0,,
1331.01,-210.0,,
1331.025,-210.0,,
1331.04,-210.0,,
1331.055,-210.0,,
1331.07,-210.0,,
1331.085,-210.0,,
1331.1,-210.0,,
1331.115,-210.0,,
1331.13,-210.0,,
1331.145,-210.0,,
1331.16,-210.0,,
1331.175,-210.0,,
1331.19,-210.0,,
1331.205,-210.0,,
1331.22,-210.0,,
1331.235,-210.0,,
1331.25,-210.0,,
1331.265,-210.0,,
1331.28,-210.0,,
1331.295,-210.0,,
1331.31,-210.0,,
1331.325,-210.0,,
1331.34,-210.0,,
1331.355,-210.0,,
1331.37,-210.0,,
1331.385,-210.0,,
1331.4,-210.0,,
1331.415,-210.0,,
1331.43,-210.0,,
1331.445,-210.0,,
1331.46,-210.0,,
1331.475,-210.0,,
1331.49,-210.0,,
1331.505,-210.0,,
1331.52,-210.0,,
1331.535,-210.0,,
1331.55,-210.0,,
1331.565,-210.0,,
1331.58,-210.0,,
1331.595,-210.0,,
1331.61,-210.0,,
1331.625,-210.0,,
1331.64,-210.0,,
1331.655,-210.0,,
1331.67,-210.0,,
1331.685,-210.0,,
1331.7,-210.0,,
1331.715,-210.0,,
1331.73,-210.0,,
1331.745,-210.0,,
1331.76,-210.0,,
1331.775,-210.0,,
1331.79,-210.0,,
1331.805,-210.0,,
1331.82,-210.0,,
1331.835,-210.0,,
1331.85,-82.08,,
1331.865,-81.17,,
1331.88,-76.7,,
1331.895,-72.63,,
1331.91,-73.4,,
1331.925,-75.65,,
1331.94,-76.51,,
1331.955,-69.18,,
1331.97,-71.83,,
1331.985,-210.0,,
1332.0,-72.04,,
1332.015,-70.31,,
1332.03,-78.88,,
1332.045,-210.0,,
1332.06,-75.41,,
1332.075,-73.68,,
1332.09,-210.0,,
1332.105,-210.0,,
1332.12,-73.55,,
1332.135,-83.25,,
1332.15,-210.0,,
1332.165,-210.0,,
1332.18,-75.46,,
1332.195,-210.0,,
1332.21,-79.56,,
1332.225,-70.75,,
1332.24,-74.46,,
1332.255,-68.03,,
1332.27,-66.73,,
1332.285,-71.21,,
1332.3,-71.54,,
1332.315,-68.28,,
1332.33,-69.79,,
1332.345,-210.0,,
1332.36,-210.0,,
1332.375,-71.07,,
1332.39,-76.04,,
1332.405,-70.64,,
1332.42,-68.25,,
1332.435,-71.33,,
1332.45,-70.77,,
1332.465,-69.25,,
1332.48,-67.35,,
1332.495,-66.76,,
1332.51,-68.6,,
1332.525,-67.86,,
1332.54,-68.69,,
1332.555,-67.87,,
1332.57,-68.87,,
1332.585,-68.86,,
1332.6,-67.79,,
1332.615,-66.62,,
1332.63,-68.55,,
1332.645,-67.71,,
1332.66,-66.08,,
1332.675,-66.29,,
1332.69,-69.01,,
1332.705,-67.47,,
1332.72,-67.09,,
1332.735,-69.13,,
1332.75,-71.83,,
1332.765,-67.89,,
1332.78,-67.82,,
1332.795,-68.58,,
1332.81,-69.18,,
1332.825,-66.2,,
1332.84,-67.37,,
1332.855,-68.18,,
1332.87,-67.35,,
1332.885,-67.38,,
1332.9,-68.71,,
1332.915,-68.42,,
1332.93,-67.19,,
1332.945,-66.88,,
1332.96,-69.18,,
1332.975,-71.3,,
1332.99,-68.55,,
1333.005,-69.72,,
1333.02,-72.52,,
1333.035,-68.4,,
1333.05,-67.37,,
1333.065,-71.19,,
1333.08,-74.72,,
1333.095,-68.91,,
1333.11,-68.6,,
1333.125,-80.8,,
1333.141,-74.12,,
1333.155,-68.01,,
1333.17,-70.51,,
1333.185,-77.03,,
1333.2,-69.9,,
1333.215,-70.33,,
1333.23,-77.91,,
1333.245,-210.0,,
1333.26,-71.84,,
1333.276,-79.09,,
1333.29,-210.0,,
1333.305,-210.0,,
1333.32,-71.76,,
1333.335,-210.0,,
1333.35,-210.0,,
1333.365,-71.84,,
1333.38,-69.13,,
1333.396,-68.95,,
1333.411,-210.0,,
1333.426,-105.73,,
1333.44,-69.03,,
1333.455,-210.0,,
1333.47,-210.0,,
1333.485,-79.83,,
1333.5,-210.0,,
1333.516,-210.0,,
1333.531,-210.0,,
1333.546,-71.48,,
1333.561,-210.0,,
1333.575,-210.0,,
1333.59,-82.8,,
1333.605,-69.98,,
1333.62,-210.0,,
1333.635,-210.0,,
1333.651,-73.05,,
1333.666,-78.42,,
1333.681,-210.0,,
1333.696,-210.0,,
1333.711,-71.49,,
1333.725,-210.0,,
1333.74,-210.0,,
1333.755,-74.87,,
1333.771,-71.74,,
1333.786,-210.0,,
1333.801,-210.0,,
1333.816,-70.93,,
1333.831,-79.6,,
1333.846,-210.0,,
1333.86,-210.0,,
1333.875,-76.22,,
1333.891,-210.0,,
1333.906,-210.0,,
1333.921,-210.0,,
1333.936,-210.0,,
1333.951,-210.0,,
1333.966,-210.0,,
1333.981,-210.0,,
1333.996,-210.0,,
1334.01,-210.0,,
1334.026,-210.0,,
1334.041,-72.92,,
1334.056,-210.0,,
1334.071,-210.0,,
1334.086,-210.0,,
1334.101,-77.45,,
1334.116,-210.0,,
1334.131,-210.0,,
1334.146,-72.64,,
1334.161,-210.0,,
1334.176,-210.0,,
1334.191,-210.0,,
1334.206,-80.01,,
1334.221,-210.0,,
1334.236,-210.0,,
1334.251,-72.4,,
1334.266,-74.73,,
1334.281,-210.0,,
1334.296,-210.0,,
1334.311,-69.78,,
1334.326,-210.0,,
1334.341,-210.0,,
1334.356,-80.6,,
1334.371,-69.64,,
1334.386,-210.0,,
1334.401,-210.0,,
1334.416,-77.96,,
1334.431,-73.87,,
1334.446,-210.0,,
1334.461,-210.0,,
1334.476,-72.13,,
1334.491,-77.31,,
1334.506,-210.0,,
1334.521,-76.01,,
1334.536,-70.74,,
1334.551,-210.0,,
1334.566,-210.0,,
1334.581,-70.92,,
1334.596,-71.4,,
1334.611,-210.0,,
1334.626,-210.0,,
1334.641,-68.93,,
1334.656,-210.0,,
1334.671,-210.0,,
1334.686,-69.47,,
1334.701,-70.43,,
1334.716,-210.0,,
1334.731,-210.0,,
1334.746,-69.27,,
1334.761,-71.49,,
1334.776,-210.0,,
1334.791,-210.0,,
1334.806,-74.37,,
1334.821,-210.0,,
1334.836,-210.0,,
1334.851,-84.2,,
1334.866,-79.49,,
1334.881,-210.0,,
1334.896,-210.0,,
1334.911,-68.36,,
1334.926,-69.76,,
1334.941,-76.79,,
1334.956,-69.42,,
1334.971,-67.28,,
1334.986,-73.01,,
1335.001,-80.24,,
1335.016,-66.88,,
1335.031,-66.14,,
1335.046,-75.56,,
1335.061,-70.61,,
1335.076,-65.62,,
1335.091,-68.39,,
1335.106,-210.0,,
1335.121,-67.18,,
1335.136,-65.82,,
1335.151,-70.24,,
1335.166,-74.87,,
1335.181,-66.38,,
1335.196,-65.23,,
1335.211,-67.85,,
1335.226,-66.79,,
1335.241,-64.18,,
1335.256,-65.71,,
1335.271,-69.15,,
1335.286,-65.37,,
1335.301,-64.27,,
1335.316,-67.26,,
1335.331,-67.59,,
1335.346,-63.96,,
1335.361,-64.48,,
1335.376,-69.07,,
1335.391,-66.74,,
1335.406,-64.19,,
1335.421,-67.05,,
1335.436,-67.44,,
1335.451,-64.64,,
1335.466,-66.6,,
1335.481,-68.51,,
1335.496,-66.94,,
1335.511,-64.9,,
1335.526,-66.4,,
1335.541,-66.93,,
1335.556,-64.83,,
1335.571,-65.76,,
1335.586,-67.45,,
1335.601,-66.99,,
1335.616,-65.24,,
1335.631,-67.23,,
1335.646,-67.82,,
1335.661,-65.88,,
1335.676,-65.52,,
1335.691,-68.26,,
1335.706,-67.0,,
1335.721,-65.77,,
1335.736,-66.82,,
1335.751,-67.99,,
1335.766,-66.88,,
1335.781,-64.41,,
1335.796,-64.87,,
1335.811,-65.41,,
1335.826,-63.77,,
1335.841,-63.0,,
1335.856,-64.31,,
1335.871,-63.89,,
1335.886,-62.52,,
1335.901,-63.11,,
1335.916,-64.56,,
1335.931,-63.5,,
1335.946,-63.21,,
1335.961,-64.26,,
1335.976,-66.96,,
1335.991,-64.65,,
1336.006,-63.4,,
1336.021,-65.63,,
1336.036,-67.64,,
1336.051,-64.59,,
1336.066,-64.7,,
1336.081,-67.1,,
1336.096,-65.9,,
1336.111,-63.32,,
1336.126,-64.83,,
1336.141,-66.54,,
1336.156,-64.26,,
1336.171,-63.82,,
1336.186,-65.72,,
1336.201,-67.57,,
1336.216,-64.92,,
1336.231,-65.83,,
1336.246,-70.86,,
1336.261,-67.75,,
1336.276,-65.24,,
1336.291,-68.95,,
1336.306,-78.06,,
1336.321,-67.8,,
1336.336,-66.65,,
1336.351,-83.95,,
1336.366,-210.0,,
1336.381,-68.05,,
1336.396,-66.32,,
1336.411,-77.8,,
1336.426,-67.65,,
1336.441,-67.5,,
1336.456,-77.02,,
1336.471,-73.46,,
1336.486,-66.38,,
1336.501,-67.01,,
1336.516,-104.99,,
1336.531,-68.96,,
1336.546,-69.97,,
1336.561,-210.0,,
1336.576,-210.0,,
1336.591,-71.1,,
1336.606,-70.1,,
1336.621,-210.0,,
1336.636,-210.0,,
1336.651,-73.47,,
1336.666,-210.0,,
1336.681,-210.0,,
1336.696,-77.51,,
1336.711,-74.36,,
1336.726,-210.0,,
1336.741,-210.0,,
1336.756,-72.63,,
1336.771,-75.03,,
1336.786,-210.0,,
1336.801,-210.0,,
1336.816,-76.38,,
1336.831,-210.0,,
1336.846,-210.0,,
1336.861,-210.0,,
1336.876,-210.0,,
1336.891,-210.0,,
1336.906,-210.0,,
1336.921,-210.0,,
1336.936,-210.0,,
1336.951,-210.0,,
1336.966,-210.0,,
1336.981,-210.0,,
1336.996,-210.0,,
1337.011,-210.0,,
1337.026,-210.0,,
1337.041,-210.0,,
1337.056,-210.0,,
1337.071,-210.0,,
1337.086,-210.0,,
1337.101,-210.0,,
1337.116,-210.0,,
1337.131,-210.0,,
1337.146,-210.0,,
1337.161,-210.0,,
1337.176,-210.0,,
1337.191,-210.0,,
1337.206,-210.0,,
1337.221,-210.0,,
1337.236,-210.0,,
1337.251,-210.0,,
1337.266,-210.0,,
1337.281,-210.0,,
1337.296,-210.0,,
1337.311,-210.0,,
1337.326,-210.0,,
1337.341,-210.0,,
1337.356,-210.0,,
1337.371,-78.7,,
1337.386,-210.0,,
1337.401,-210.0,,
1337.416,-210.0,,
1337.431,-210.0,,
1337.446,-210.0,,
1337.461,-210.0,,
1337.476,-74.95,,
1337.491,-210.0,,
1337.506,-210.0,,
1337.521,-210.0,,
1337.536,-80.51,,
1337.551,-210.0,,
1337.566,-210.0,,
1337.581,-72.35,,
1337.596,-70.81,,
1337.611,-210.0,,
1337.626,-210.0,,
1337.641,-67.41,,
1337.656,-71.58,,
1337.671,-210.0,,
1337.686,-70.48,,
1337.701,-66.96,,
1337.716,-77.65,,
1337.731,-210.0,,
1337.746,-71.31,,
1337.761,-68.25,,
1337.776,-210.0,,
1337.791,-79.35,,
1337.806,-67.33,,
1337.821,-68.64,,
1337.836,-210.0,,
1337.851,-71.3,,
1337.866,-68.05,,
1337.881,-71.24,,
1337.896,-210.0,,
1337.911,-68.66,,
1337.926,-68.86,,
1337.941,-210.0,,
1337.956,-73.21,,
1337.971,-66.84,,
1337.986,-67.65,,
1338.001,-79.32,,
1338.016,-67.31,,
1338.031,-66.01,,
1338.046,-69.07,,
1338.061,-69.42,,
1338.076,-65.15,,
1338.091,-65.74,,
1338.106,-70.63,,
1338.121,-68.18,,
1338.136,-66.04,,
1338.151,-69.6,,
1338.166,-67.56,,
1338.181,-64.87,,
1338.196,-67.04,,
1338.211,-69.08,,
1338.226,-65.4,,
1338.241,-64.05,,
1338.256,-65.6,,
1338.271,-65.38,,
1338.286,-63.65,,
1338.301,-63.72,,
1338.316,-65.07,,
1338.331,-65.39,,
1338.346,-64.34,,
1338.361,-66.09,,
1338.376,-67.7,,
1338.391,-66.38,,
1338.406,-66.16,,
1338.421,-71.11,,
1338.436,-70.31,,
1338.451,-67.76,,
1338.466,-68.71,,
1338.481,-70.81,,
1338.496,-68.86,,
1338.511,-66.91,,
1338.526,-73.95,,
1338.541,-76.05,,
1338.556,-68.92,,
1338.571,-67.6,,
1338.586,-73.01,,
1338.601,-72.83,,
1338.616,-67.58,,
1338.631,-73.92,,
1338.646,-210.0,,
1338.661,-71.96,,
1338.676,-68.2,,
1338.691,-73.38,,
1338.706,-210.0,,
1338.721,-71.77,,
1338.736,-68.29,,
1338.751,-71.45,,
1338.766,-76.22,,
1338.781,-69.96,,
1338.796,-71.17,,
1338.811,-75.8,,
1338.826,-210.0,,
1338.841,-73.68,,
1338.856,-78.95,,
1338.871,-75.02,,
1338.886,-76.59,,
1338.901,-79.23,,
1338.916,-210.0,,
1338.931,-210.0,,
1338.946,-74.08,,
1338.961,-210.0,,
1338.976,-210.0,,
1338.991,-210.0,,
1339.006,-210.0,,
1339.021,-210.0,,
1339.036,-210.0,,
1339.051,-210.0,,
1339.066,-210.0,,
1339.081,-210.0,,
1339.096,-210.0,,
1339.111,-210.0,,
1339.126,-210.0,,
1339.141,-210.0,,
1339.156,-210.0,,
1339.171,-210.0,,
1339.186,-210.0,,
1339.201,-210.0,,
1339.216,-210.0,,
1339.231,-210.0,,
1339.246,-210.0,,
1339.261,-210.0,,
1339.276,-210.0,,
1339.291,-210.0,,
1339.306,-210.0,,
1339.321,-210.0,,
1339.336,-210.0,,
1339.351,-210.0,,
1339.366,-210.0,,
1339.381,-210.0,,
1339.396,-210.0,,
1339.411,-210.0,,
1339.426,-210.0,,
1339.441,-210.0,,
1339.456,-210.0,,
1339.471,-210.0,,
1339.486,-210.0,,
1339.501,-210.0,,
1339.516,-210.0,,
1339.531,-210.0,,
1339.546,-210.0,,
1339.561,-210.0,,
1339.576,-210.0,,
1339.591,-210.0,,
1339.606,-210.0,,
1339.621,-210.0,,
1339.636,-210.0,,
1339.651,-210.0,,
1339.666,-210.0,,
1339.681,-210.0,,
1339.696,-210.0,,
1339.711,-210.0,,
1339.726,-210.0,,
1339.741,-210.0,,
1339.756,-210.0,,
1339.771,-210.0,,
1339.786,-210.0,,
1339.801,-210.0,,
1339.816,-210.0,,
1339.831,-210.0,,
1339.846,-210.0,,
1339.861,-210.0,,
1339.876,-210.0,,
1339.891,-210.0,,
1339.906,-210.0,,
1339.921,-210.0,,
1339.936,-210.0,,
1339.951,-210.0,,
1339.966,-210.0,,
1339.981,-210.0,,
1339.996,-210.0,,
1340.011,-210.0,,
1340.026,-210.0,,
1340.041,-210.0,,
1340.056,-210.0,,
1340.071,-210.0,,
1340.086,-210.0,,
1340.101,-210.0,,
1340.116,-210.0,,
1340.131,-210.0,,
1340.146,-210.0,,
1340.161,-210.0,,
1340.176,-210.0,,
1340.191,-210.0,,
1340.206,-210.0,,
1340.221,-80.65,,
1340.236,-210.0,,
1340.251,-210.0,,
1340.266,-210.0,,
1340.281,-210.0,,
1340.296,-210.0,,
1340.311,-210.0,,
1340.326,-210.0,,
1340.341,-210.0,,
1340.356,-210.0,,
1340.371,-210.0,,
1340.386,-75.39,,
1340.401,-210.0,,
1340.416,-210.0,,
1340.431,-210.0,,
1340.446,-72.92,,
1340.461,-210.0,,
1340.476,-210.0,,
1340.491,-71.74,,
1340.506,-210.0,,
1340.521,-210.0,,
1340.536,-210.0,,
1340.551,-210.0,,
1340.566,-210.0,,
1340.581,-210.0,,
1340.596,-210.0,,
1340.611,-210.0,,
1340.626,-210.0,,
1340.641,-210.0,,
1340.656,-210.0,,
1340.671,-73.18,,
1340.686,-72.71,,
1340.701,-71.57,,
1340.716,-72.15,,
1340.731,-69.48,,
1340.746,-78.32,,
1340.761,-76.16,,
1340.776,-71.67,,
1340.791,-77.45,,
1340.806,-210.0,,
1340.821,-210.0,,
1340.836,-210.0,,
1340.851,-210.0,,
1340.866,-210.0,,
1340.881,-210.0,,
1340.896,-210.0,,
1340.911,-210.0,,
1340.926,-210.0,,
1340.941,-210.0,,
1340.956,-210.0,,
1340.971,-69.38,,
1340.986,-72.77,,
1341.001,-73.72,,
1341.016,-69.47,,
1341.031,-69.13,,
1341.046,-68.05,,
1341.061,-68.6,,
1341.076,-67.77,,
1341.091,-70.99,,
1341.106,-69.76,,
1341.121,-68.69,,
1341.136,-68.71,,
1341.151,-72.15,,
1341.167,-70.75,,
1341.181,-67.12,,
1341.196,-70.55,,
1341.211,-71.15,,
1341.226,-70.12,,
1341.241,-67.73,,
1341.256,-70.76,,
1341.271,-70.01,,
1341.286,-69.14,,
1341.302,-68.37,,
1341.316,-70.19,,
1341.331,-70.24,,
1341.346,-67.25,,
1341.361,-68.45,,
1341.376,-68.62,,
1341.391,-68.45,,
1341.406,-66.38,,
1341.422,-64.75,,
1341.437,-65.66,,
1341.452,-70.86,,
1341.466,-66.38,,
1341.481,-66.44,,
1341.496,-68.58,,
1341.511,-68.09,,
1341.526,-65.59,,
1341.542,-65.44,,
1341.557,-66.35,,
1341.572,-69.97,,
1341.587,-67.07,,
1341.601,-66.08,,
1341.616,-65.94,,
1341.631,-66.74,,
1341.646,-67.97,,
1341.661,-66.02,,
1341.677,-67.7,,
1341.692,-69.26,,
1341.707,-70.6,,
1341.722,-69.25,,
1341.737,-210.0,,
1341.751,-72.85,,
1341.766,-68.81,,
1341.781,-70.26,,
1341.797,-75.81,,
1341.812,-71.66,,
1341.827,-69.93,,
1341.842,-72.03,,
1341.857,-210.0,,
1341.872,-69.49,,
1341.887,-67.68,,
1341.901,-72.2,,
1341.917,-70.37,,
1341.932,-69.01,,
1341.947,-70.09,,
1341.962,-70.14,,
1341.977,-70.73,,
1341.992,-71.01,,
1342.007,-210.0,,
1342.022,-210.0,,
1342.036,-69.52,,
1342.052,-210.0,,
1342.067,-210.0,,
1342.082,-81.93,,
1342.097,-82.69,,
1342.112,-210.0,,
1342.127,-210.0,,
1342.142,-210.0,,
1342.157,-210.0,,
1342.172,-73.52,,
1342.187,-210.0,,
1342.202,-76.24,,
1342.217,-70.45,,
1342.232,-71.39,,
1342.247,-71.63,,
1342.262,-70.58,,
1342.277,-71.4,,
1342.292,-72.55,,
1342.307,-77.66,,
1342.322,-74.79,,
1342.337,-70.17,,
1342.352,-84.16,,
1342.367,-78.68,,
1342.382,-75.96,,
1342.397,-88.29,,
1342.412,-74.07,,
1342.427,-210.0,,
1342.442,-210.0,,
1342.457,-72.35,,
1342.472,-79.16,,
1342.487,-210.0,,
1342.502,-210.0,,
1342.517,-71.69,,
1342.532,-210.0,,
1342.547,-210.0,,
1342.562,-210.0,,
1342.577,-87.69,,
1342.592,-210.0,,
1342.607,-210.0,,
1342.622,-210.0,,
1342.637,-210.0,,
1342.652,-210.0,,
1342.667,-210.0,,
1342.682,-210.0,,
1342.697,-210.0,,
1342.712,-210.0,,
1342.727,-210.0,,
1342.742,-210.0,,
1342.757,-210.0,,
1342.772,-210.0,,
1342.787,-210.0,,
1342.802,-72.31,,
1342.817,-72.52,,
1342.832,-210.0,,
1342.847,-74.52,,
1342.862,-68.18,,
1342.877,-75.41,,
1342.892,-210.0,,
1342.907,-70.56,,
1342.922,-70.21,,
1342.937,-210.0,,
1342.952,-210.0,,
1342.967,-71.05,,
1342.982,-74.13,,
1342.997,-210.0,,
1343.012,-80.53,,
1343.027,-70.15,,
1343.042,-210.0,,
1343.057,-210.0,,
1343.072,-210.0,,
1343.087,-210.0,,
1343.102,-76.97,,
1343.117,-70.82,,
1343.132,-73.84,,
1343.147,-210.0,,
1343.162,-71.5,,
1343.177,-74.4,,
1343.192,-210.0,,
1343.207,-210.0,,
1343.222,-81.7,,
1343.237,-210.0,,
1343.252,-210.0,,
1343.267,-210.0,,
1343.282,-210.0,,
1343.297,-210.0,,
1343.312,-210.0,,
1343.327,-210.0,,
1343.342,-210.0,,
1343.357,-210.0,,
1343.372,-210.0,,
1343.387,-210.0,,
1343.402,-210.0,,
1343.417,-210.0,,
1343.432,-210.0,,
1343.447,-210.0,,
1343.462,-210.0,,
1343.477,-210.0,,
1343.492,-210.0,,
1343.507,-210.0,,
1343.522,-210.0,,
1343.537,-210.0,,
1343.552,-210.0,,
1343.567,-210.0,,
1343.582,-210.0,,
1343.597,-73.57,,
1343.612,-210.0,,
1343.627,-210.0,,
1343.642,-210.0,,
1343.657,-210.0,,
1343.672,-210.0,,
1343.687,-210.0,,
1343.702,-75.54,,
1343.717,-210.0,,
1343.732,-210.0,,
1343.747,-210.0,,
1343.762,-77.72,,
1343.777,-210.0,,
1343.792,-210.0,,
1343.807,-86.88,,
1343.822,-210.0,,
1343.837,-210.0,,
1343.852,-210.0,,
1343.867,-210.0,,
1343.882,-210.0,,
1343.897,-210.0,,
1343.912,-210.0,,
1343.927,-210.0,,
1343.942,-210.0,,
1343.957,-70.95,,
1343.972,-69.34,,
1343.987,-210.0,,
1344.002,-210.0,,
1344.017,-67.5,,
1344.032,-72.43,,
1344.047,-210.0,,
1344.062,-68.1,,
1344.077,-66.45,,
1344.092,-72.54,,
1344.107,-72.0,,
1344.122,-69.63,,
1344.137,-72.89,,
1344.152,-72.59,,
1344.167,-69.11,,
1344.182,-69.31,,
1344.197,-73.71,,
1344.212,-69.59,,
1344.227,-69.23,,
1344.242,-69.19,,
1344.257,-68.64,,
1344.272,-66.32,,
1344.287,-66.27,,
1344.302,-67.75,,
1344.317,-67.27,,
1344.332,-65.01,,
1344.347,-65.69,,
1344.362,-68.45,,
1344.377,-64.31,,
1344.392,-65.16,,
1344.407,-70.4,,
1344.422,-67.14,,
1344.437,-64.7,,
1344.452,-66.71,,
1344.467,-69.4,,
1344.482,-65.39,,
1344.497,-65.35,,
1344.512,-69.35,,
1344.527,-66.97,,
1344.542,-66.9,,
1344.557,-69.15,,
1344.572,-69.62,,
1344.587,-68.39,,
1344.602,-68.17,,
1344.617,-68.45,,
1344.632,-68.42,,
1344.647,-67.12,,
1344.662,-67.21,,
1344.677,-67.14,,
1344.692,-68.17,,
1344.707,-66.85,,
1344.722,-66.9,,
1344.737,-66.91,,
1344.752,-66.87,,
1344.767,-66.93,,
1344.782,-71.3,,
1344.797,-65.45,,
1344.812,-65.36,,
1344.827,-71.0,,
1344.842,-66.49,,
1344.857,-64.64,,
1344.872,-66.96,,
1344.887,-72.76,,
1344.902,-65.7,,
1344.917,-64.45,,
1344.932,-67.75,,
1344.947,-66.2,,
1344.962,-65.16,,
1344.977,-67.04,,
1344.992,-67.04,,
1345.007,-66.41,,
1345.022,-67.33,,
1345.037,-66.87,,
1345.052,-68.61,,
1345.067,-69.0,,
1345.082,-70.44,,
1345.097,-70.99,,
1345.112,-68.97,,
1345.127,-68.35,,
1345.142,-69.7,,
1345.157,-69.92,,
1345.172,-68.59,,
1345.187,-66.74,,
1345.202,-66.62,,
1345.217,-65.15,,
1345.232,-63.84,,
1345.247,-64.89,,
1345.262,-65.36,,
1345.277,-64.87,,
1345.292,-64.87,,
1345.307,-66.84,,
1345.322,-65.09,,
1345.337,-65.17,,
1345.352,-66.44,,
1345.367,-66.18,,
1345.382,-67.75,,
1345.397,-67.59,,
1345.412,-65.68,,
1345.427,-67.23,,
1345.442,-67.74,,
1345.457,-65.91,,
1345.472,-66.33,,
1345.487,-66.5,,
1345.502,-66.15,,
1345.517,-64.61,,
1345.532,-65.98,,
1345.547,-65.88,,
1345.562,-64.76,,
1345.577,-64.32,,
1345.592,-64.86,,
1345.607,-65.09,,
1345.622,-67.3,,
1345.637,-64.21,,
1345.652,-64.07,,
1345.667,-66.18,,
1345.682,-66.74,,
1345.697,-64.38,,
1345.712,-64.96,,
1345.727,-68.1,,
1345.742,-67.18,,
1345.757,-64.91,,
1345.772,-65.76,,
1345.787,-66.7,,
1345.802,-67.67,,
1345.817,-68.14,,
1345.832,-65.59,,
1345.847,-67.52,,
1345.862,-68.38,,
1345.877,-67.25,,
1345.892,-65.76,,
1345.907,-65.33,,
1345.922,-67.41,,
1345.937,-69.11,,
1345.952,-66.99,,
1345.967,-67.24,,
1345.982,-72.73,,
1345.997,-68.87,,
1346.012,-66.23,,
1346.027,-67.42,,
1346.042,-210.0,,
1346.057,-68.62,,
1346.072,-66.03,,
1346.087,-68.32,,
1346.102,-69.88,,
1346.117,-65.96,,
1346.132,-66.72,,
1346.147,-71.59,,
1346.162,-68.14,,
1346.177,-65.73,,
1346.192,-210.0,,
1346.207,-74.28,,
1346.222,-71.09,,
1346.237,-210.0,,
1346.252,-210.0,,
1346.267,-210.0,,
1346.282,-80.38,,
1346.297,-210.0,,
1346.312,-210.0,,
1346.327,-79.69,,
1346.342,-210.0,,
1346.357,-210.0,,
1346.372,-87.82,,
1346.387,-74.69,,
1346.402,-210.0,,
1346.417,-210.0,,
1346.432,-71.2,,
1346.447,-210.0,,
1346.462,-210.0,,
1346.477,-210.0,,
1346.492,-210.0,,
1346.507,-210.0,,
1346.522,-210.0,,
1346.537,-210.0,,
1346.552,-210.0,,
1346.567,-210.0,,
1346.582,-210.0,,
1346.597,-210.0,,
1346.612,-210.0,,
1346.627,-210.0,,
1346.642,-210.0,,
1346.657,-210.0,,
1346.672,-210.0,,
1346.687,-73.42,,
1346.702,-210.0,,
1346.717,-210.0,,
1346.732,-210.0,,
1346.747,-73.98,,
1346.762,-210.0,,
1346.777,-210.0,,
1346.792,-210.0,,
1346.807,-80.65,,
1346.822,-210.0,,
1346.837,-210.0,,
1346.852,-210.0,,
1346.867,-210.0,,
1346.882,-210.0,,
1346.897,-210.0,,
1346.912,-210.0,,
1346.927,-210.0,,
1346.942,-210.0,,
1346.957,-210.0,,
1346.972,-210.0,,
1346.987,-210.0,,
1347.002,-210.0,,
1347.017,-210.0,,
1347.032,-210.0,,
1347.047,-210.0,,
1347.062,-210.0,,
1347.077,-210.0,,
1347.092,-210.0,,
1347.107,-210.0,,
1347.122,-210.0,,
1347.137,-210.0,,
1347.152,-210.0,,
1347.167,-210.0,,
1347.182,-210.0,,
1347.197,-210.0,,
1347.212,-210.0,,
1347.227,-210.0,,
1347.242,-210.0,,
1347.257,-210.0,,
1347.272,-210.0,,
1347.287,-210.0,,
1347.302,-210.0,,
1347.317,-210.0,,
1347.332,-210.0,,
1347.347,-210.0,,
1347.362,-210.0,,
1347.377,-210.0,,
1347.392,-210.0,,
1347.407,-210.0,,
1347.422,-210.0,,
1347.437,-210.0,,
1347.452,-210.0,,
1347.467,-210.0,,
1347.482,-210.0,,
1347.497,-210.0,,
1347.512,-210.0,,
1347.527,-210.0,,
1347.542,-210.0,,
1347.557,-210.0,,
1347.572,-210.0,,
1347.587,-210.0,,
1347.602,-210.0,,
1347.617,-210.0,,
1347.632,-210.0,,
1347.647,-210.0,,
1347.662,-210.0,,
1347.677,-210.0,,
1347.692,-210.0,,
1347.707,-210.0,,
1347.722,-210.0,,
1347.737,-210.0,,
1347.752,-210.0,,
1347.767,-210.0,,
1347.782,-210.0,,
1347.797,-210.0,,
1347.812,-210.0,,
1347.827,-210.0,,
1347.842,-210.0,,
1347.857,-210.0,,
1347.872,-210.0,,
1347.887,-210.0,,
1347.902,-210.0,,
1347.917,-210.0,,
1347.932,-73.01,,
1347.947,-210.0,,
1347.962,-210.0,,
1347.977,-210.0,,
1347.992,-210.0,,
1348.007,-210.0,,
1348.022,-210.0,,
1348.037,-210.0,,
1348.052,-210.0,,
1348.067,-210.0,,
1348.082,-210.0,,
1348.097,-210.0,,
1348.112,-210.0,,
1348.127,-210.0,,
1348.142,-210.0,,
1348.157,-210.0,,
1348.172,-210.0,,
1348.187,-210.0,,
1348.202,-210.0,,
1348.217,-210.0,,
1348.232,-210.0,,
1348.247,-210.0,,
1348.262,-210.0,,
1348.277,-210.0,,
1348.292,-210.0,,
1348.307,-210.0,,
1348.322,-210.0,,
1348.337,-210.0,,
1348.352,-210.0,,
1348.367,-210.0,,
1348.382,-210.0,,
1348.397,-210.0,,
1348.412,-210.0,,
1348.427,-210.0,,
1348.442,-210.0,,
1348.457,-210.0,,
1348.472,-210.0,,
1348.487,-210.0,,
1348.502,-77.45,,
1348.517,-210.0,,
1348.532,-210.0,,
1348.547,-210.0,,
1348.562,-210.0,,
1348.577,-210.0,,
1348.592,-210.0,,
1348.607,-210.0,,
1348.622,-210.0,,
1348.637,-210.0,,
1348.652,-210.0,,
1348.667,-74.15,,
1348.682,-210.0,,
1348.697,-210.0,,
1348.712,-75.19,,
1348.727,-210.0,,
1348.742,-210.0,,
1348.757,-210.0,,
1348.772,-69.75,,
1348.787,-210.0,,
1348.802,-210.0,,
1348.817,-70.19,,
1348.832,-68.38,,
1348.847,-210.0,,
1348.862,-68.12,,
1348.877,-71.66,,
1348.892,-210.0,,
1348.907,-70.62,,
1348.922,-68.28,,
1348.937,-85.84,,
1348.952,-74.71,,
1348.967,-67.93,,
1348.982,-68.65,,
1348.997,-210.0,,
1349.012,-68.57,,
1349.027,-65.47,,
1349.042,-68.53,,
1349.057,-76.36,,
1349.072,-66.68,,
1349.087,-65.66,,
1349.102,-67.63,,
1349.117,-65.07,,
1349.132,-63.92,,
1349.147,-64.91,,
1349.162,-63.13,,
1349.177,-62.65,,
1349.193,-64.64,,
1349.207,-65.48,,
1349.222,-63.16,,
1349.237,-63.53,,
1349.252,-66.19,,
1349.267,-65.99,,
1349.282,-63.8,,
1349.297,-65.91,,
1349.313,-68.28,,
1349.328,-65.59,,
1349.343,-66.91,,
1349.357,-70.05,,
1349.372,-65.83,,
1349.387,-65.12,,
1349.402,-66.22,,
1349.417,-67.45,,
1349.432,-65.45,,
1349.448,-65.58,,
1349.463,-68.02,,
1349.478,-64.98,,
1349.492,-65.08,,
1349.507,-70.81,,
1349.522,-67.68,,
1349.537,-64.17,,
1349.552,-65.65,,
1349.568,-70.19,,
1349.583,-65.92,,
1349.598,-66.42,,
1349.613,-71.46,,
1349.628,-69.87,,
1349.642,-65.76,,
1349.657,-66.53,,
1349.672,-74.99,,
1349.688,-65.98,,
1349.703,-66.91,,
1349.718,-69.76,,
1349.733,-69.91,,
1349.748,-66.57,,
1349.763,-69.17,,
1349.777,-71.78,,
1349.792,-69.22,,
1349.807,-69.28,,
1349.823,-76.63,,
1349.838,-78.39,,
1349.853,-68.6,,
1349.868,-210.0,,
1349.883,-210.0,,
1349.898,-72.79,,
1349.913,-210.0,,
1349.927,-210.0,,
1349.943,-76.72,,
1349.958,-210.0,,
1349.973,-210.0,,
1349.988,-210.0,,
1350.003,-68.81,,
1350.018,-210.0,,
1350.033,-210.0,,
1350.048,-210.0,,
1350.063,-210.0,,
1350.078,-210.0,,
1350.093,-210.0,,
1350.108,-210.0,,
1350.123,-210.0,,
1350.138,-210.0,,
1350.153,-210.0,,
1350.168,-210.0,,
1350.183,-210.0,,
1350.198,-210.0,,
1350.213,-210.0,,
1350.228,-210.0,,
1350.243,-210.0,,
1350.258,-210.0,,
1350.273,-210.0,,
1350.288,-210.0,,
1350.303,-210.0,,
1350.318,-210.0,,
1350.333,-210.0,,
1350.348,-210.0,,
1350.363,-210.0,,
1350.378,-210.0,,
1350.393,-210.0,,
1350.408,-210.0,,
1350.423,-210.0,,
1350.438,-210.0,,
1350.453,-210.0,,
1350.468,-210.0,,
1350.483,-210.0,,
1350.498,-210.0,,
1350.513,-210.0,,
1350.528,-210.0,,
1350.543,-210.0,,
1350.558,-210.0,,
1350.573,-210.0,,
1350.588,-210.0,,
1350.603,-210.0,,
1350.618,-210.0,,
1350.633,-210.0,,
1350.648,-210.0,,
1350.663,-210.0,,
1350.678,-210.0,,
1350.693,-210.0,,
1350.708,-210.0,,
1350.723,-210.0,,
1350.738,-210.0,,
1350.753,-210.0,,
1350.768,-210.0,,
1350.783,-210.0,,
1350.798,-210.0,,
1350.813,-210.0,,
1350.828,-210.0,,
1350.843,-210.0,,
1350.858,-210.0,,
1350.873,-210.0,,
1350.888,-210.0,,
1350.903,-210.0,,
1350.918,-210.0,,
1350.933,-210.0,,
1350.948,-210.0,,
1350.963,-210.0,,
1350.978,-210.0,,
1350.993,-210.0,,
1351.008,-210.0,,
1351.023,-210.0,,
1351.038,-210.0,,
1351.053,-210.0,,
1351.068,-210.0,,
1351.083,-210.0,,
1351.098,-210.0,,
1351.113,-210.0,,
1351.128,-210.0,,
1351.143,-210.0,,
1351.158,-210.0,,
1351.173,-71.89,,
1351.188,-210.0,,
1351.203,-210.0,,
1351.218,-210.0,,
1351.233,-71.24,,
1351.248,-210.0,,
1351.263,-210.0,,
1351.278,-70.77,,
1351.293,-210.0,,
1351.308,-210.0,,
1351.323,-210.0,,
1351.338,-71.34,,
1351.353,-210.0,,
1351.368,-210.0,,
1351.383,-69.34,,
1351.398,-210.0,,
1351.413,-210.0,,
1351.428,-78.04,,
1351.443,-73.21,,
1351.458,-210.0,,
1351.473,-210.0,,
1351.488,-69.62,,
1351.503,-74.04,,
1351.518,-210.0,,
1351.533,-69.2,,
1351.548,-68.66,,
1351.563,-79.03,,
1351.578,-71.09,,
1351.593,-67.17,,
1351.608,-210.0,,
1351.623,-210.0,,
1351.638,-69.05,,
1351.653,-82.02,,
1351.668,-210.0,,
1351.683,-70.44,,
1351.698,-69.73,,
1351.713,-210.0,,
1351.728,-68.35,,
1351.743,-68.13,,
1351.758,-74.7,,
1351.773,-69.7,,
1351.788,-65.6,,
1351.803,-67.04,,
1351.818,-67.71,,
1351.833,-65.53,,
1351.848,-64.08,,
1351.863,-66.47,,
1351.878,-66.38,,
1351.893,-63.83,,
1351.908,-64.44,,
1351.923,-65.08,,
1351.938,-63.9,,
1351.953,-67.0,,
1351.968,-67.73,,
1351.983,-64.22,,
1351.998,-65.27,,
1352.013,-67.29,,
1352.028,-66.18,,
1352.043,-63.6,,
1352.058,-64.08,,
1352.073,-66.12,,
1352.088,-66.7,,
1352.103,-65.15,,
1352.118,-65.02,,
1352.133,-65.66,,
1352.148,-64.85,,
1352.163,-65.56,,
1352.178,-65.84,,
1352.193,-65.86,,
1352.208,-65.31,,
1352.223,-65.66,,
1352.238,-65.08,,
1352.253,-64.23,,
1352.268,-65.88,,
1352.283,-65.69,,
1352.298,-66.25,,
1352.313,-64.89,,
1352.328,-64.76,,
1352.343,-65.77,,
1352.358,-66.01,,
1352.373,-64.6,,
1352.388,-64.11,,
1352.403,-65.18,,
1352.418,-64.13,,
1352.433,-63.78,,
1352.448,-64.17,,
1352.463,-64.26,,
1352.478,-62.67,,
1352.493,-64.7,,
1352.508,-65.99,,
1352.523,-63.69,,
1352.538,-64.29,,
1352.553,-66.41,,
1352.568,-65.64,,
1352.583,-64.73,,
1352.598,-66.71,,
1352.613,-66.11,,
1352.628,-64.64,,
1352.643,-64.61,,
1352.658,-65.62,,
1352.673,-64.13,,
1352.688,-64.17,,
1352.703,-68.61,,
1352.718,-65.74,,
1352.733,-66.34,,
1352.748,-68.78,,
1352.763,-67.86,,
1352.778,-66.54,,
1352.793,-67.98,,
1352.808,-72.76,,
1352.823,-73.64,,
1352.838,-71.74,,
1352.853,-210.0,,
1352.868,-210.0,,
1352.883,-210.0,,
1352.898,-210.0,,
1352.913,-210.0,,
1352.928,-210.0,,
1352.943,-210.0,,
1352.958,-210.0,,
1352.973,-83.71,,
1352.988,-210.0,,
1353.003,-75.42,,
1353.018,-81.21,,
1353.033,-210.0,,
1353.048,-210.0,,
1353.063,-210.0,,
1353.078,-210.0,,
1353.093,-210.0,,
1353.108,-70.39,,
1353.123,-210.0,,
1353.138,-210.0,,
1353.153,-210.0,,
1353.168,-210.0,,
1353.183,-210.0,,
1353.198,-210.0,,
1353.213,-76.48,,
1353.228,-210.0,,
1353.243,-210.0,,
1353.258,-210.0,,
1353.273,-81.61,,
1353.288,-210.0,,
1353.303,-73.99,,
1353.318,-72.34,,
1353.333,-210.0,,
1353.348,-210.0,,
1353.363,-210.0,,
1353.378,-210.0,,
1353.393,-210.0,,
1353.408,-210.0,,
1353.423,-210.0,,
1353.438,-210.0,,
1353.453,-210.0,,
1353.468,-210.0,,
1353.483,-210.0,,
1353.498,-210.0,,
1353.513,-210.0,,
1353.528,-210.0,,
1353.543,-210.0,,
1353.558,-210.0,,
1353.573,-210.0,,
1353.588,-210.0,,
1353.603,-210.0,,
1353.618,-210.0,,
1353.633,-210.0,,
1353.648,-210.0,,
1353.663,-210.0,,
1353.678,-210.0,,
1353.693,-210.0,,
1353.708,-70.12,,
1353.723,-210.0,,
1353.738,-210.0,,
1353.753,-210.0,,
1353.768,-210.0,,
1353.783,-210.0,,
1353.798,-210.0,,
1353.813,-210.0,,
1353.828,-210.0,,
1353.843,-210.0,,
1353.858,-79.79,,
1353.873,-70.54,,
1353.888,-71.26,,
1353.903,-70.23,,
1353.918,-67.91,,
1353.933,-210.0,,
1353.948,-82.41,,
1353.963,-74.61,,
1353.978,-77.7,,
1353.993,-76.5,,
1354.008,-210.0,,
1354.023,-78.74,,
1354.038,-73.45,,
1354.053,-74.83,,
1354.068,-75.91,,
1354.083,-74.26,,
1354.098,-72.43,,
1354.113,-84.41,,
1354.128,-77.26,,
1354.143,-69.78,,
1354.158,-210.0,,
1354.173,-78.34,,
1354.188,-68.66,,
1354.203,-69.34,,
1354.218,-210.0,,
1354.233,-70.73,,
1354.248,-67.38,,
1354.263,-72.03,,
1354.278,-210.0,,
1354.293,-69.45,,
1354.308,-68.47,,
1354.323,-72.53,,
1354.338,-66.61,,
1354.353,-67.36,,
1354.368,-71.3,,
1354.383,-67.26,,
1354.398,-66.37,,
1354.413,-68.27,,
1354.428,-68.57,,
1354.443,-66.36,,
1354.458,-66.83,,
1354.473,-68.48,,
1354.488,-65.9,,
1354.503,-65.31,,
1354.518,-71.38,,
1354.533,-66.07,,
1354.548,-64.6,,
1354.563,-67.02,,
1354.578,-69.31,,
1354.593,-67.45,,
1354.608,-66.87,,
1354.623,-69.88,,
1354.638,-68.03,,
1354.653,-68.75,,
1354.668,-73.7,,
1354.683,-69.56,,
1354.698,-67.48,,
1354.713,-210.0,,
1354.728,-74.29,,
1354.743,-67.03,,
1354.758,-70.12,,
1354.773,-68.84,,
1354.788,-66.84,,
1354.803,-68.07,,
1354.818,-71.27,,
1354.833,-66.84,,
1354.848,-66.22,,
1354.863,-67.88,,
1354.878,-66.43,,
1354.893,-65.04,,
1354.908,-68.91,,
1354.923,-71.01,,
1354.938,-65.96,,
1354.953,-67.65,,
1354.968,-68.75,,
1354.983,-66.9,,
1354.998,-67.17,,
1355.013,-67.81,,
1355.028,-68.23,,
1355.043,-67.62,,
1355.058,-66.37,,
1355.073,-66.78,,
1355.088,-63.86,,
1355.103,-64.56,,
1355.118,-68.11,,
1355.133,-64.47,,
1355.148,-64.65,,
1355.163,-64.82,,
1355.178,-64.71,,
1355.193,-64.25,,
1355.208,-65.34,,
1355.223,-66.05,,
1355.238,-65.7,,
1355.253,-66.53,,
1355.268,-70.41,,
1355.283,-65.62,,
1355.298,-64.92,,
1355.313,-69.31,,
1355.328,-72.17,,
1355.343,-70.22,,
1355.358,-68.39,,
1355.373,-67.31,,
1355.388,-67.9,,
1355.403,-69.0,,
1355.418,-69.3,,
1355.433,-69.22,,
1355.448,-67.79,,
1355.463,-71.04,,
1355.478,-70.29,,
1355.493,-67.46,,
1355.508,-69.06,,
1355.523,-68.61,,
1355.538,-68.24,,
1355.553,-68.43,,
1355.568,-68.15,,
1355.583,-69.77,,
1355.598,-71.27,,
1355.613,-71.74,,
1355.628,-70.15,,
1355.643,-67.29,,
1355.658,-67.67,,
1355.673,-70.55,,
1355.688,-67.1,,
1355.703,-67.68,,
1355.718,-64.6,,
1355.733,-66.52,,
1355.748,-67.47,,
1355.763,-66.67,,
1355.778,-66.23,,
1355.793,-70.07,,
1355.808,-68.39,,
1355.823,-70.95,,
1355.838,-68.69,,
1355.853,-71.4,,
1355.868,-81.76,,
1355.883,-210.0,,
1355.898,-210.0,,
1355.913,-77.67,,
1355.928,-73.09,,
1355.943,-210.0,,
1355.958,-78.74,,
1355.973,-69.06,,
1355.988,-75.25,,
1356.003,-69.98,,
1356.018,-90.23,,
1356.033,-210.0,,
1356.048,-71.52,,
1356.063,-210.0,,
1356.078,-210.0,,
1356.093,-210.0,,
1356.108,-210.0,,
1356.123,-70.8,,
1356.138,-210.0,,
1356.153,-210.0,,
1356.168,-210.0,,
1356.183,-210.0,,
1356.198,-210.0,,
1356.213,-210.0,,
1356.228,-210.0,,
1356.243,-210.0,,
1356.258,-210.0,,
1356.273,-76.37,,
1356.288,-210.0,,
1356.303,-210.0,,
1356.318,-210.0,,
1356.333,-70.36,,
1356.348,-210.0,,
1356.363,-210.0,,
1356.378,-210.0,,
1356.393,-210.0,,
1356.408,-210.0,,
1356.423,-210.0,,
1356.438,-210.0,,
1356.453,-210.0,,
1356.468,-210.0,,
1356.483,-210.0,,
1356.498,-210.0,,
1356.513,-210.0,,
1356.528,-210.0,,
1356.543,-210.0,,
1356.558,-210.0,,
1356.573,-210.0,,
1356.588,-210.0,,
1356.603,-210.0,,
1356.618,-210.0,,
1356.633,-210.0,,
1356.648,-210.0,,
1356.663,-210.0,,
1356.678,-210.0,,
1356.693,-210.0,,
1356.708,-210.0,,
1356.723,-210.0,,
1356.738,-210.0,,
1356.753,-210.0,,
1356.768,-210.0,,
1356.783,-210.0,,
1356.798,-210.0,,
1356.813,-210.0,,
1356.828,-71.81,,
1356.843,-210.0,,
1356.858,-210.0,,
1356.873,-72.34,,
1356.888,-69.88,,
1356.903,-73.34,,
1356.918,-82.8,,
1356.933,-210.0,,
1356.948,-81.59,,
1356.963,-80.41,,
1356.978,-210.0,,
1356.993,-210.0,,
1357.008,-210.0,,
1357.023,-210.0,,
1357.038,-210.0,,
1357.053,-210.0,,
1357.068,-210.0,,
1357.083,-210.0,,
1357.098,-210.0,,
1357.113,-210.0,,
1357.128,-210.0,,
1357.143,-210.0,,
1357.158,-71.33,,
1357.173,-210.0,,
1357.188,-210.0,,
1357.203,-210.0,,
1357.219,-210.0,,
1357.233,-210.0,,
1357.248,-89.65,,
1357.263,-75.45,,
1357.278,-72.74,,
1357.293,-74.24,,
1357.308,-66.19,,
1357.323,-68.72,,
1357.339,-210.0,,
1357.354,-73.34,,
1357.369,-68.13,,
1357.383,-68.85,,
1357.398,-68.43,,
1357.413,-67.27,,
1357.428,-67.34,,
1357.443,-66.81,,
1357.458,-66.4,,
1357.474,-65.71,,
1357.489,-69.99,,
1357.504,-64.71,,
1357.518,-65.16,,
1357.533,-68.08,,
1357.548,-67.35,,
1357.563,-66.99,,
1357.578,-69.5,,
1357.594,-70.71,,
1357.609,-67.36,,
1357.624,-68.04,,
1357.639,-72.46,,
1357.654,-65.42,,
1357.668,-65.76,,
1357.683,-73.11,,
1357.698,-69.42,,
1357.714,-66.06,,
1357.729,-67.05,,
1357.744,-70.77,,
1357.759,-70.37,,
1357.774,-69.86,,
1357.789,-70.46,,
1357.803,-67.02,,
1357.818,-68.75,,
1357.833,-210.0,,
1357.849,-70.04,,
1357.864,-66.99,,
1357.879,-68.59,,
1357.894,-73.66,,
1357.909,-67.74,,
1357.924,-68.43,,
1357.939,-66.07,,
1357.953,-68.78,,
1357.969,-70.11,,
1357.984,-210.0,,
1357.999,-69.09,,
1358.014,-67.3,,
1358.029,-73.4,,
1358.044,-74.76,,
1358.059,-69.15,,
1358.074,-67.99,,
1358.089,-75.7,,
1358.104,-71.37,,
1358.119,-76.39,,
1358.134,-210.0,,
1358.149,-81.34,,
1358.164,-210.0,,
1358.179,-210.0,,
1358.194,-210.0,,
1358.209,-210.0,,
1358.224,-210.0,,
1358.239,-210.0,,
1358.254,-210.0,,
1358.269,-210.0,,
1358.284,-210.0,,
1358.299,-210.0,,
1358.314,-210.0,,
1358.329,-210.0,,
1358.344,-210.0,,
1358.359,-210.0,,
1358.374,-210.0,,
1358.389,-210.0,,
1358.404,-210.0,,
1358.419,-210.0,,
1358.434,-210.0,,
1358.449,-210.0,,
1358.464,-210.0,,
1358.479,-210.0,,
1358.494,-210.0,,
1358.509,-210.0,,
1358.524,-210.0,,
1358.539,-210.0,,
1358.554,-210.0,,
1358.569,-210.0,,
1358.584,-210.0,,
1358.599,-210.0,,
1358.614,-210.0,,
1358.629,-210.0,,
1358.644,-210.0,,
1358.659,-210.0,,
1358.674,-210.0,,
1358.689,-210.0,,
1358.704,-210.0,,
1358.719,-210.0,,
1358.734,-210.0,,
1358.749,-210.0,,
1358.764,-210.0,,
1358.779,-210.0,,
1358.794,-210.0,,
1358.809,-210.0,,
1358.824,-210.0,,
1358.839,-210.0,,
1358.854,-210.0,,
1358.869,-210.0,,
1358.884,-210.0,,
1358.899,-210.0,,
1358.914,-210.0,,
1358.929,-210.0,,
1358.944,-210.0,,
1358.959,-210.0,,
1358.974,-210.0,,
1358.989,-210.0,,
1359.004,-210.0,,
1359.019,-210.0,,
1359.034,-210.0,,
1359.049,-210.0,,
1359.064,-210.0,,
1359.079,-210.0,,
1359.094,-210.0,,
1359.109,-210.0,,
1359.124,-210.0,,
1359.139,-210.0,,
1359.154,-210.0,,
1359.169,-210.0,,
1359.184,-210.0,,
1359.199,-210.0,,
1359.214,-210.0,,
1359.229,-210.0,,
1359.244,-210.0,,
1359.259,-210.0,,
1359.274,-210.0,,
1359.289,-210.0,,
1359.304,-210.0,,
1359.319,-210.0,,
1359.334,-210.0,,
1359.349,-210.0,,
1359.364,-210.0,,
1359.379,-210.0,,
1359.394,-210.0,,
1359.409,-210.0,,
1359.424,-210.0,,
1359.439,-210.0,,
1359.454,-210.0,,
1359.469,-210.0,,
1359.484,-210.0,,
1359.499,-210.0,,
1359.514,-210.0,,
1359.529,-210.0,,
1359.544,-210.0,,
1359.559,-210.0,,
1359.574,-210.0,,
1359.589,-210.0,,
1359.604,-210.0,,
1359.619,-210.0,,
1359.634,-210.0,,
1359.649,-210.0,,
1359.664,-210.0,,
1359.679,-210.0,,
1359.694,-210.0,,
1359.709,-210.0,,
1359.724,-210.0,,
1359.739,-210.0,,
1359.754,-210.0,,
1359.769,-210.0,,
1359.784,-210.0,,
1359.799,-210.0,,
1359.814,-210.0,,
1359.829,-210.0,,
1359.844,-210.0,,
1359.859,-210.0,,
1359.874,-210.0,,
1359.889,-210.0,,
1359.904,-210.0,,
1359.919,-210.0,,
1359.934,-210.0,,
1359.949,-210.0,,
1359.964,-210.0,,
1359.979,-210.0,,
1359.994,-210.0,,
1360.009,-210.0,,
1360.024,-210.0,,
1360.039,-210.0,,
1360.054,-210.0,,
1360.069,-210.0,,
1360.084,-210.0,,
1360.099,-210.0,,
1360.114,-210.0,,
1360.129,-210.0,,
1360.144,-210.0,,
1360.159,-210.0,,
1360.174,-210.0,,
1360.189,-210.0,,
1360.204,-210.0,,
1360.219,-210.0,,
1360.234,-210.0,,
1360.249,-210.0,,
1360.264,-210.0,,
1360.279,-210.0,,
1360.294,-210.0,,
1360.309,-210.0,,
1360.324,-210.0,,
1360.339,-210.0,,
1360.354,-210.0,,
1360.369,-210.0,,
1360.384,-210.0,,
1360.399,-210.0,,
1360.414,-210.0,,
1360.429,-210.0,,
1360.444,-210.0,,
1360.459,-210.0,,
1360.474,-210.0,,
1360.489,-210.0,,
1360.504,-210.0,,
1360.519,-210.0,,
1360.534,-210.0,,
1360.549,-210.0,,
1360.564,-210.0,,
1360.579,-210.0,,
1360.594,-210.0,,
1360.609,-210.0,,
1360.624,-71.04,,
1360.639,-210.0,,
1360.654,-210.0,,
1360.669,-210.0,,
1360.684,-72.58,,
1360.699,-81.77,,
1360.714,-67.75,,
1360.729,-67.25,,
1360.744,-70.94,,
1360.759,-67.01,,
1360.774,-64.65,,
1360.789,-66.15,,
1360.804,-68.98,,
1360.819,-65.36,,
1360.834,-64.51,,
1360.849,-68.49,,
1360.864,-65.38,,
1360.879,-64.19,,
1360.894,-67.4,,
1360.909,-65.62,,
1360.924,-63.96,,
1360.939,-66.4,,
1360.954,-68.2,,
1360.969,-64.47,,
1360.984,-64.62,,
1360.999,-66.87,,
1361.014,-64.06,,
1361.029,-65.13,,
1361.044,-66.32,,
1361.059,-63.63,,
1361.074,-63.92,,
1361.089,-65.79,,
1361.104,-65.25,,
1361.119,-63.35,,
1361.134,-64.32,,
1361.149,-66.43,,
1361.164,-64.69,,
1361.179,-67.28,,
1361.194,-68.75,,
1361.209,-66.54,,
1361.224,-67.31,,
1361.239,-74.62,,
1361.254,-70.93,,
1361.269,-66.37,,
1361.284,-67.43,,
1361.299,-65.96,,
1361.314,-66.24,,
1361.329,-69.45,,
1361.344,-70.15,,
1361.359,-67.6,,
1361.374,-67.68,,
1361.389,-70.96,,
1361.404,-69.54,,
1361.419,-65.39,,
1361.434,-65.55,,
1361.449,-66.61,,
1361.464,-67.52,,
1361.479,-72.45,,
1361.494,-69.95,,
1361.509,-66.82,,
1361.524,-69.92,,
1361.539,-70.01,,
1361.554,-69.44,,
1361.569,-69.03,,
1361.584,-67.77,,
1361.599,-67.57,,
1361.614,-66.09,,
1361.629,-69.88,,
1361.644,-67.82,,
1361.659,-66.03,,
1361.674,-68.6,,
1361.689,-71.5,,
1361.704,-71.67,,
1361.719,-210.0,,
1361.734,-75.92,,
1361.749,-68.93,,
1361.764,-210.0,,
1361.779,-210.0,,
1361.794,-210.0,,
1361.809,-83.41,,
1361.824,-210.0,,
1361.839,-210.0,,
1361.854,-210.0,,
1361.869,-210.0,,
1361.884,-210.0,,
1361.899,-210.0,,
1361.914,-210.0,,
1361.929,-210.0,,
1361.944,-210.0,,
1361.959,-210.0,,
1361.974,-210.0,,
1361.989,-210.0,,
1362.004,-210.0,,
1362.019,-210.0,,
1362.034,-75.42,,
1362.049,-210.0,,
1362.064,-210.0,,
1362.079,-210.0,,
1362.094,-210.0,,
1362.109,-210.0,,
1362.124,-210.0,,
1362.139,-210.0,,
1362.154,-210.0,,
1362.169,-210.0,,
1362.184,-70.38,,
1362.199,-75.77,,
1362.214,-210.0,,
1362.229,-72.07,,
1362.244,-71.1,,
1362.259,-71.37,,
1362.274,-73.13,,
1362.289,-77.53,,
1362.304,-210.0,,
1362.319,-210.0,,
1362.334,-72.0,,
1362.349,-210.0,,
1362.364,-210.0,,
1362.379,-210.0,,
1362.394,-210.0,,
1362.409,-210.0,,
1362.424,-210.0,,
1362.439,-210.0,,
1362.454,-210.0,,
1362.469,-210.0,,
1362.484,-71.83,,
1362.499,-210.0,,
1362.514,-210.0,,
1362.529,-210.0,,
1362.544,-210.0,,
1362.559,-210.0,,
1362.574,-210.0,,
1362.589,-210.0,,
1362.604,-210.0,,
1362.619,-210.0,,
1362.634,-210.0,,
1362.649,-210.0,,
1362.664,-210.0,,
1362.679,-210.0,,
1362.694,-210.0,,
1362.709,-210.0,,
1362.724,-72.1,,
1362.739,-210.0,,
1362.754,-210.0,,
1362.769,-70.79,,
1362.784,-210.0,,
1362.799,-71.0,,
1362.814,-210.0,,
1362.829,-72.92,,
1362.844,-77.84,,
1362.859,-70.58,,
1362.874,-70.64,,
1362.889,-210.0,,
1362.904,-72.15,,
1362.919,-67.44,,
1362.934,-66.9,,
1362.949,-68.34,,
1362.964,-70.17,,
1362.979,-210.0,,
1362.994,-87.14,,
1363.009,-68.51,,
1363.024,-210.0,,
1363.039,-210.0,,
1363.054,-73.54,,
1363.069,-70.13,,
1363.084,-69.01,,
1363.099,-68.04,,
1363.114,-210.0,,
1363.129,-210.0,,
1363.144,-74.82,,
1363.159,-69.54,,
1363.174,-210.0,,
1363.189,-81.72,,
1363.204,-210.0,,
1363.219,-76.03,,
1363.234,-86.03,,
1363.249,-72.76,,
1363.264,-210.0,,
1363.279,-210.0,,
1363.294,-74.61,,
1363.309,-210.0,,
1363.324,-210.0,,
1363.339,-210.0,,
1363.354,-210.0,,
1363.369,-210.0,,
1363.384,-72.8,,
1363.399,-71.27,,
1363.414,-210.0,,
1363.429,-210.0,,
1363.444,-68.94,,
1363.459,-80.76,,
1363.474,-74.56,,
1363.489,-210.0,,
1363.504,-210.0,,
1363.519,-210.0,,
1363.534,-70.34,,
1363.549,-72.32,,
1363.564,-210.0,,
1363.579,-76.94,,
1363.594,-71.53,,
1363.609,-69.49,,
1363.624,-68.06,,
1363.639,-70.6,,
1363.654,-68.49,,
1363.669,-68.27,,
1363.684,-65.22,,
1363.699,-67.74,,
1363.714,-73.01,,
1363.729,-69.15,,
1363.744,-69.82,,
1363.759,-68.9,,
1363.774,-72.29,,
1363.789,-69.95,,
1363.804,-210.0,,
1363.819,-70.88,,
1363.834,-68.61,,
1363.849,-76.37,,
1363.864,-210.0,,
1363.879,-210.0,,
1363.894,-76.51,,
1363.909,-210.0,,
1363.924,-210.0,,
1363.939,-210.0,,
1363.954,-210.0,,
1363.969,-79.64,,
1363.984,-76.85,,
1363.999,-210.0,,
1364.014,-210.0,,
1364.029,-210.0,,
1364.044,-210.0,,
1364.059,-210.0,,
1364.074,-210.0,,
1364.089,-210.0,,
1364.104,-210.0,,
1364.119,-210.0,,
1364.134,-210.0,,
1364.149,-210.0,,
1364.164,-210.0,,
1364.179,-210.0,,
1364.194,-210.0,,
1364.209,-210.0,,
1364.224,-210.0,,
1364.239,-210.0,,
1364.254,-210.0,,
1364.269,-79.74,,
1364.284,-210.0,,
1364.299,-210.0,,
1364.314,-71.9,,
1364.329,-210.0,,
1364.344,-77.47,,
1364.359,-68.57,,
1364.374,-73.08,,
1364.389,-210.0,,
1364.404,-78.58,,
1364.419,-210.0,,
1364.434,-90.96,,
1364.449,-210.0,,
1364.464,-210.0,,
1364.479,-210.0,,
1364.494,-210.0,,
1364.509,-69.79,,
1364.524,-210.0,,
1364.539,-210.0,,
1364.554,-210.0,,
1364.569,-210.0,,
1364.584,-210.0,,
1364.599,-210.0,,
1364.614,-210.0,,
1364.629,-210.0,,
1364.644,-210.0,,
1364.659,-210.0,,
1364.674,-210.0,,
1364.689,-210.0,,
1364.704,-210.0,,
1364.719,-210.0,,
1364.734,-210.0,,
1364.749,-210.0,,
1364.764,-210.0,,
1364.779,-210.0,,
1364.794,-210.0,,
1364.809,-210.0,,
1364.824,-210.0,,
1364.839,-210.0,,
1364.854,-210.0,,
1364.869,-210.0,,
1364.884,-71.74,,
1364.899,-73.48,,
1364.914,-73.03,,
1364.929,-70.84,,
1364.944,-70.84,,
1364.959,-74.71,,
1364.974,-76.89,,
1364.989,-78.11,,
1365.004,-210.0,,
1365.019,-210.0,,
1365.034,-72.81,,
1365.049,-210.0,,
1365.064,-210.0,,
1365.079,-210.0,,
1365.094,-210.0,,
1365.109,-210.0,,
1365.124,-210.0,,
1365.139,-210.0,,
1365.154,-210.0,,
1365.169,-210.0,,
1365.184,-210.0,,
1365.199,-210.0,,
1365.214,-210.0,,
1365.229,-210.0,,
1365.245,-210.0,,
1365.259,-210.0,,
1365.274,-210.0,,
1365.289,-210.0,,
1365.304,-210.0,,
1365.319,-210.0,,
1365.334,-210.0,,
1365.349,-210.0,,
1365.365,-210.0,,
1365.38,-210.0,,
1365.395,-210.0,,
1365.409,-210.0,,
1365.424,-210.0,,
1365.439,-210.0,,
1365.454,-210.0,,
1365.469,-210.0,,
1365.484,-210.0,,
1365.5,-210.0,,
1365.515,-210.0,,
1365.53,-210.0,,
1365.544,-210.0,,
1365.559,-210.0,,
1365.574,-210.0,,
1365.589,-210.0,,
1365.604,-210.0,,
1365.62,-210.0,,
1365.635,-210.0,,
1365.65,-210.0,,
1365.665,-210.0,,
1365.68,-210.0,,
1365.694,-210.0,,
1365.709,-210.0,,
1365.724,-210.0,,
1365.74,-210.0,,
1365.755,-210.0,,
1365.77,-210.0,,
1365.785,-210.0,,
1365.8,-210.0,,
1365.815,-210.0,,
1365.83,-210.0,,
1365.844,-210.0,,
1365.859,-210.0,,
1365.875,-210.0,,
1365.89,-210.0,,
1365.905,-210.0,,
1365.92,-210.0,,
1365.935,-210.0,,
1365.95,-210.0,,
1365.965,-210.0,,
1365.979,-210.0,,
1365.995,-210.0,,
1366.01,-210.0,,
1366.025,-210.0,,
1366.04,-210.0,,
1366.055,-210.0,,
1366.07,-210.0,,
1366.085,-210.0,,
1366.1,-210.0,,
1366.115,-76.34,,
1366.13,-73.75,,
1366.145,-210.0,,
1366.16,-210.0,,
1366.175,-210.0,,
1366.19,-210.0,,
1366.205,-210.0,,
1366.22,-210.0,,
1366.235,-210.0,,
1366.25,-210.0,,
1366.265,-210.0,,
1366.28,-210.0,,
1366.295,-210.0,,
1366.31,-210.0,,
1366.325,-210.0,,
1366.34,-210.0,,
1366.355,-69.79,,
1366.37,-72.59,,
1366.385,-210.0,,
1366.4,-210.0,,
1366.415,-210.0,,
1366.43,-210.0,,
1366.445,-210.0,,
1366.46,-210.0,,
1366.475,-210.0,,
1366.49,-210.0,,
1366.505,-210.0,,
1366.52,-210.0,,
1366.535,-210.0,,
1366.55,-210.0,,
1366.565,-210.0,,
1366.58,-210.0,,
1366.595,-71.81,,
1366.61,-210.0,,
1366.625,-210.0,,
1366.64,-96.03,,
1366.655,-210.0,,
1366.67,-210.0,,
1366.685,-72.86,,
1366.7,-210.0,,
1366.715,-210.0,,
1366.73,-210.0,,
1366.745,-210.0,,
1366.76,-210.0,,
1366.775,-210.0,,
1366.79,-210.0,,
1366.805,-210.0,,
1366.82,-72.25,,
1366.835,-71.19,,
1366.85,-210.0,,
1366.865,-210.0,,
1366.88,-210.0,,
1366.895,-210.0,,
1366.91,-210.0,,
1366.925,-210.0,,
1366.94,-210.0,,
1366.955,-210.0,,
1366.97,-74.51,,
1366.985,-76.05,,
1367.0,-87.79,,
1367.015,-71.81,,
1367.03,-69.54,,
1367.045,-73.67,,
1367.06,-66.73,,
1367.075,-65.68,,
1367.09,-72.45,,
1367.105,-74.95,,
1367.12,-70.42,,
1367.135,-70.12,,
1367.15,-70.05,,
1367.165,-76.31,,
1367.18,-210.0,,
1367.195,-210.0,,
1367.21,-70.33,,
1367.225,-70.54,,
1367.24,-68.31,,
1367.255,-71.66,,
1367.27,-70.49,,
1367.285,-72.11,,
1367.3,-66.57,,
1367.315,-65.98,,
1367.33,-68.36,,
1367.345,-68.74,,
1367.36,-70.39,,
1367.375,-70.29,,
1367.39,-69.79,,
1367.405,-69.87,,
1367.42,-80.37,,
1367.435,-210.0,,
1367.45,-70.17,,
1367.465,-69.71,,
1367.48,-67.64,,
1367.495,-68.69,,
1367.51,-68.02,,
1367.525,-67.9,,
1367.54,-66.0,,
1367.555,-64.46,,
1367.57,-66.05,,
1367.585,-67.3,,
1367.6,-69.43,,
1367.615,-68.51,,
1367.63,-66.71,,
1367.645,-66.13,,
1367.66,-68.58,,
1367.675,-76.93,,
1367.69,-69.98,,
1367.705,-68.78,,
1367.72,-67.29,,
1367.735,-70.37,,
1367.75,-74.95,,
1367.765,-210.0,,
1367.78,-68.94,,
1367.795,-68.12,,
1367.81,-70.66,,
1367.825,-210.0,,
1367.84,-78.18,,
1367.855,-210.0,,
1367.87,-71.55,,
1367.885,-74.17,,
1367.9,-210.0,,
1367.915,-210.0,,
1367.93,-210.0,,
1367.945,-79.32,,
1367.96,-72.77,,
1367.975,-73.73,,
1367.99,-210.0,,
1368.005,-210.0,,
1368.02,-210.0,,
1368.035,-210.0,,
1368.05,-210.0,,
1368.065,-210.0,,
1368.08,-210.0,,
1368.095,-210.0,,
1368.11,-210.0,,
1368.125,-210.0,,
1368.14,-210.0,,
1368.155,-210.0,,
1368.17,-210.0,,
1368.185,-210.0,,
1368.2,-210.0,,
1368.215,-210.0,,
1368.23,-210.0,,
1368.245,-210.0,,
1368.26,-210.0,,
1368.275,-210.0,,
1368.29,-210.0,,
1368.305,-210.0,,
1368.32,-210.0,,
1368.335,-210.0,,
1368.35,-210.0,,
1368.365,-210.0,,
1368.38,-210.0,,
1368.395,-210.0,,
1368.41,-210.0,,
1368.425,-210.0,,
1368.44,-210.0,,
1368.455,-210.0,,
1368.47,-210.0,,
1368.485,-210.0,,
1368.5,-210.0,,
1368.515,-210.0,,
1368.53,-210.0,,
1368.545,-210.0,,
1368.56,-210.0,,
1368.575,-210.0,,
1368.59,-210.0,,
1368.605,-210.0,,
1368.62,-210.0,,
1368.635,-210.0,,
1368.65,-210.0,,
1368.665,-210.0,,
1368.68,-210.0,,
1368.695,-210.0,,
1368.71,-210.0,,
1368.725,-210.0,,
1368.74,-210.0,,
1368.755,-210.0,,
1368.77,-210.0,,
1368.785,-210.0,,
1368.8,-210.0,,
1368.815,-210.0,,
1368.83,-210.0,,
1368.845,-210.0,,
1368.86,-210.0,,
1368.875,-210.0,,
1368.89,-210.0,,
1368.905,-210.0,,
1368.92,-210.0,,
1368.935,-70.63,,
1368.95,-210.0,,
1368.965,-210.0,,
1368.98,-210.0,,
1368.995,-210.0,,
1369.01,-210.0,,
1369.025,-210.0,,
1369.04,-210.0,,
1369.055,-210.0,,
1369.07,-210.0,,
1369.085,-210.0,,
1369.1,-210.0,,
1369.115,-210.0,,
1369.13,-210.0,,
1369.145,-210.0,,
1369.16,-210.0,,
1369.175,-210.0,,
1369.19,-210.0,,
1369.205,-210.0,,
1369.22,-210.0,,
1369.235,-210.0,,
1369.25,-210.0,,
1369.265,-210.0,,
1369.28,-210.0,,
1369.295,-210.0,,
1369.31,-210.0,,
1369.325,-210.0,,
1369.34,-210.0,,
1369.355,-210.0,,
1369.37,-210.0,,
1369.385,-210.0,,
1369.4,-210.0,,
1369.415,-210.0,,
1369.43,-210.0,,
1369.445,-210.0,,
1369.46,-210.0,,
1369.475,-210.0,,
1369.49,-210.0,,
1369.505,-210.0,,
1369.52,-210.0,,
1369.535,-210.0,,
1369.55,-210.0,,
1369.565,-210.0,,
1369.58,-210.0,,
1369.595,-210.0,,
1369.61,-210.0,,
1369.625,-210.0,,
1369.64,-210.0,,
1369.655,-210.0,,
1369.67,-210.0,,
1369.685,-210.0,,
1369.7,-210.0,,
1369.715,-210.0,,
1369.73,-210.0,,
1369.745,-210.0,,
1369.76,-210.0,,
1369.775,-210.0,,
1369.79,-210.0,,
1369.805,-210.0,,
1369.82,-210.0,,
1369.835,-210.0,,
1369.85,-210.0,,
1369.865,-210.0,,
1369.88,-210.0,,
1369.895,-210.0,,
1369.91,-210.0,,
1369.925,-210.0,,
1369.94,-210.0,,
1369.955,-210.0,,
1369.97,-210.0,,
1369.985,-210.0,,
1370.0,-210.0,,
