wavelength_axis,light_level,mean_wavelength
1250.0,-84.47,1301.188
1250.015,-83.1,
1250.03,-85.27,
1250.045,-85.06,
1250.06,-84.35,
1250.075,-83.66,
1250.09,-84.57,
1250.105,-87.36,
1250.12,-85.52,
1250.135,-88.16,
1250.15,-87.18,
1250.165,-87.23,
1250.18,-86.27,
1250.195,-86.47,
1250.21,-89.87,
1250.225,-86.48,
1250.24,-93.05,
1250.255,-87.77,
1250.27,-88.84,
1250.285,-94.27,
1250.3,-210.0,
1250.315,-94.85,
1250.33,-87.04,
1250.345,-210.0,
1250.36,-90.48,
1250.375,-210.0,
1250.39,-210.0,
1250.405,-90.64,
1250.42,-87.24,
1250.435,-87.77,
1250.45,-210.0,
1250.465,-90.88,
1250.48,-89.74,
1250.495,-89.83,
1250.51,-87.5,
1250.525,-94.26,
1250.54,-114.33,
1250.555,-210.0,
1250.57,-85.83,
1250.585,-87.4,
1250.6,-89.39,
1250.615,-94.98,
1250.63,-210.0,
1250.645,-87.8,
1250.66,-87.03,
1250.675,-84.96,
1250.69,-99.16,
1250.705,-210.0,
1250.72,-91.31,
1250.735,-91.7,
1250.75,-87.58,
1250.765,-210.0,
1250.78,-210.0,
1250.795,-210.0,
1250.81,-210.0,
1250.825,-87.87,
1250.84,-92.77,
1250.855,-91.62,
1250.87,-210.0,
1250.885,-100.64,
1250.9,-91.2,
1250.915,-86.57,
1250.93,-86.87,
1250.945,-210.0,
1250.96,-88.71,
1250.975,-84.8,
1250.99,-83.75,
1251.005,-84.65,
1251.02,-86.79,
1251.035,-97.25,
1251.05,-210.0,
1251.065,-84.75,
1251.08,-85.27,
1251.095,-87.41,
1251.11,-210.0,
1251.125,-89.41,
1251.14,-85.26,
1251.155,-83.69,
1251.17,-83.45,
1251.185,-90.02,
1251.2,-89.48,
1251.215,-86.99,
1251.23,-85.03,
1251.245,-84.61,
1251.26,-85.39,
1251.275,-87.4,
1251.29,-210.0,
1251.305,-85.15,
1251.32,-83.95,
1251.335,-85.6,
1251.35,-88.65,
1251.365,-97.95,
1251.38,-84.61,
1251.395,-85.36,
1251.41,-83.78,
1251.425,-86.38,
1251.44,-89.47,
1251.455,-87.16,
1251.47,-85.89,
1251.485,-83.79,
1251.5,-85.23,
1251.515,-87.27,
1251.53,-210.0,
1251.545,-87.9,
1251.56,-83.38,
1251.575,-84.36,
1251.59,-87.18,
1251.605,-210.0,
1251.62,-87.9,
1251.635,-86.09,
1251.65,-85.16,
1251.665,-84.69,
1251.68,-91.12,
1251.695,-88.63,
1251.71,-88.1,
1251.725,-84.59,
1251.74,-85.67,
1251.755,-87.02,
1251.77,-87.98,
1251.785,-88.49,
1251.8,-83.9,
1251.815,-84.43,
1251.83,-87.26,
1251.845,-95.66,
1251.86,-87.18,
1251.875,-85.66,
1251.89,-85.08,
1251.905,-83.26,
1251.92,-83.81,
1251.935,-85.05,
1251.95,-84.34,
1251.965,-82.82,
1251.98,-83.13,
1251.995,-83.34,
1252.01,-83.78,
1252.025,-84.37,
1252.04,-82.22,
1252.055,-81.23,
1252.07,-81.49,
1252.085,-82.45,
1252.1,-82.93,
1252.115,-82.55,
1252.13,-83.15,
1252.145,-82.18,
1252.16,-82.79,
1252.175,-83.7,
1252.19,-83.94,
1252.205,-82.66,
1252.22,-81.78,
1252.235,-82.75,
1252.25,-82.83,
1252.265,-83.63,
1252.28,-83.1,
1252.295,-82.61,
1252.31,-81.69,
1252.325,-81.8,
1252.34,-82.44,
1252.355,-81.71,
1252.37,-82.01,
1252.385,-82.46,
1252.4,-82.03,
1252.415,-82.46,
1252.43,-83.73,
1252.445,-83.81,
1252.46,-82.5,
1252.475,-82.8,
1252.49,-83.08,
1252.505,-82.82,
1252.52,-82.93,
1252.535,-82.67,
1252.55,-83.02,
1252.565,-82.96,
1252.58,-84.23,
1252.595,-83.11,
1252.61,-82.9,
1252.625,-83.09,
1252.64,-82.18,
1252.655,-81.75,
1252.67,-82.38,
1252.685,-83.25,
1252.7,-82.5,
1252.715,-82.94,
1252.73,-82.66,
1252.745,-81.67,
1252.76,-82.47,
1252.775,-83.2,
1252.79,-84.07,
1252.805,-82.9,
1252.82,-82.86,
1252.835,-82.96,
1252.85,-84.08,
1252.865,-86.77,
1252.88,-86.22,
1252.895,-85.99,
1252.91,-85.38,
1252.925,-90.56,
1252.94,-94.39,
1252.955,-210.0,
1252.97,-210.0,
1252.985,-89.92,
1253.0,-93.33,
1253.015,-210.0,
1253.03,-210.0,
1253.045,-210.0,
1253.06,-90.5,
1253.075,-93.93,
1253.09,-93.31,
1253.105,-210.0,
1253.12,-210.0,
1253.135,-88.85,
1253.15,-84.52,
1253.165,-84.92,
1253.18,-88.53,
1253.195,-90.38,
1253.21,-90.52,
1253.225,-86.35,
1253.24,-85.99,
1253.255,-86.05,
1253.271,-97.1,
1253.285,-96.89,
1253.3,-84.89,
1253.315,-85.36,
1253.33,-85.5,
1253.345,-89.94,
1253.36,-210.0,
1253.375,-98.43,
1253.391,-85.64,
1253.406,-83.81,
1253.421,-88.34,
1253.435,-90.68,
1253.45,-89.82,
1253.465,-84.8,
1253.48,-83.72,
1253.495,-84.15,
1253.51,-87.83,
1253.526,-210.0,
1253.541,-86.85,
1253.556,-84.04,
1253.571,-83.54,
1253.585,-85.05,
1253.6,-89.48,
1253.615,-91.61,
1253.63,-87.47,
1253.646,-83.49,
1253.661,-88.45,
1253.676,-210.0,
1253.691,-210.0,
1253.706,-89.69,
1253.72,-85.11,
1253.735,-85.51,
1253.75,-87.22,
1253.766,-210.0,
1253.781,-90.39,
1253.796,-85.82,
1253.811,-84.89,
1253.826,-86.6,
1253.841,-93.19,
1253.856,-89.43,
1253.87,-86.4,
1253.885,-82.19,
1253.901,-82.33,
1253.916,-85.29,
1253.931,-86.43,
1253.946,-85.26,
1253.961,-83.0,
1253.976,-82.76,
1253.991,-82.58,
1254.005,-85.29,
1254.021,-86.72,
1254.036,-83.65,
1254.051,-82.58,
1254.066,-83.45,
1254.081,-86.53,
1254.096,-87.8,
1254.111,-88.49,
1254.126,-83.45,
1254.141,-82.86,
1254.156,-86.76,
1254.171,-115.0,
1254.186,-96.86,
1254.201,-85.78,
1254.216,-85.99,
1254.231,-86.23,
1254.246,-90.15,
1254.261,-210.0,
1254.276,-91.45,
1254.291,-85.71,
1254.306,-85.48,
1254.321,-89.74,
1254.336,-93.33,
1254.351,-99.89,
1254.366,-88.01,
1254.381,-84.37,
1254.396,-86.24,
1254.411,-88.77,
1254.426,-90.4,
1254.441,-85.76,
1254.456,-85.47,
1254.471,-85.7,
1254.486,-85.83,
1254.501,-92.4,
1254.516,-88.68,
1254.531,-85.47,
1254.546,-83.87,
1254.561,-86.01,
1254.576,-88.4,
1254.591,-88.39,
1254.606,-88.57,
1254.621,-84.96,
1254.636,-84.31,
1254.651,-86.71,
1254.666,-87.87,
1254.681,-86.23,
1254.696,-84.71,
1254.711,-85.38,
1254.726,-84.92,
1254.741,-87.91,
1254.756,-210.0,
1254.771,-90.26,
1254.786,-85.2,
1254.801,-86.22,
1254.816,-91.29,
1254.831,-87.36,
1254.846,-89.43,
1254.861,-86.25,
1254.876,-84.78,
1254.891,-85.59,
1254.906,-90.74,
1254.921,-87.27,
1254.936,-84.87,
1254.951,-85.79,
1254.966,-84.24,
1254.981,-84.93,
1254.996,-88.15,
1255.011,-88.34,
1255.026,-85.63,
1255.041,-84.58,
1255.056,-86.76,
1255.071,-84.57,
1255.086,-85.44,
1255.101,-88.03,
1255.116,-86.36,
1255.131,-85.88,
1255.146,-87.04,
1255.161,-89.1,
1255.176,-86.55,
1255.191,-87.87,
1255.206,-87.94,
1255.221,-85.77,
1255.236,-85.58,
1255.251,-88.97,
1255.266,-94.13,
1255.281,-88.86,
1255.296,-88.72,
1255.311,-87.04,
1255.326,-88.17,
1255.341,-210.0,
1255.356,-210.0,
1255.371,-87.57,
1255.386,-85.78,
1255.401,-91.62,
1255.416,-210.0,
1255.431,-210.0,
1255.446,-210.0,
1255.461,-95.31,
1255.476,-92.61,
1255.491,-210.0,
1255.506,-210.0,
1255.521,-210.0,
1255.536,-210.0,
1255.551,-210.0,
1255.566,-210.0,
1255.581,-210.0,
1255.596,-210.0,
1255.611,-210.0,
1255.626,-210.0,
1255.641,-210.0,
1255.656,-210.0,
1255.671,-210.0,
1255.686,-210.0,
1255.701,-210.0,
1255.716,-210.0,
1255.731,-210.0,
1255.746,-210.0,
1255.761,-210.0,
1255.776,-210.0,
1255.791,-210.0,
1255.806,-210.0,
1255.821,-210.0,
1255.836,-210.0,
1255.851,-210.0,
1255.866,-210.0,
1255.881,-210.0,
1255.896,-210.0,
1255.911,-210.0,
1255.926,-210.0,
1255.941,-210.0,
1255.956,-210.0,
1255.971,-210.0,
1255.986,-210.0,
1256.001,-210.0,
1256.016,-210.0,
1256.031,-210.0,
1256.046,-210.0,
1256.061,-210.0,
1256.076,-210.0,
1256.091,-210.0,
1256.106,-210.0,
1256.121,-210.0,
1256.136,-210.0,
1256.151,-210.0,
1256.166,-210.0,
1256.181,-210.0,
1256.196,-210.0,
1256.211,-210.0,
1256.226,-210.0,
1256.241,-210.0,
1256.256,-210.0,
1256.271,-210.0,
1256.286,-210.0,
1256.301,-210.0,
1256.316,-210.0,
1256.331,-210.0,
1256.346,-210.0,
1256.361,-210.0,
1256.376,-210.0,
1256.391,-210.0,
1256.406,-210.0,
1256.421,-210.0,
1256.436,-210.0,
1256.451,-210.0,
1256.466,-210.0,
1256.481,-210.0,
1256.496,-210.0,
1256.511,-210.0,
1256.526,-210.0,
1256.541,-210.0,
1256.556,-210.0,
1256.571,-210.0,
1256.586,-210.0,
1256.601,-210.0,
1256.616,-210.0,
1256.631,-210.0,
1256.646,-210.0,
1256.661,-210.0,
1256.676,-210.0,
1256.691,-210.0,
1256.706,-210.0,
1256.721,-210.0,
1256.736,-210.0,
1256.751,-210.0,
1256.766,-210.0,
1256.781,-210.0,
1256.796,-210.0,
1256.811,-210.0,
1256.826,-210.0,
1256.841,-210.0,
1256.856,-210.0,
1256.871,-210.0,
1256.886,-210.0,
1256.901,-210.0,
1256.916,-210.0,
1256.931,-210.0,
1256.946,-95.9,
1256.961,-210.0,
1256.976,-210.0,
1256.991,-210.0,
1257.006,-210.0,
1257.021,-210.0,
1257.036,-210.0,
1257.051,-210.0,
1257.066,-210.0,
1257.081,-210.0,
1257.096,-210.0,
1257.111,-210.0,
1257.126,-210.0,
1257.141,-210.0,
1257.156,-210.0,
1257.171,-210.0,
1257.186,-99.08,
1257.201,-91.36,
1257.216,-210.0,
1257.231,-210.0,
1257.246,-210.0,
1257.261,-91.31,
1257.276,-97.03,
1257.291,-94.42,
1257.306,-97.77,
1257.321,-210.0,
1257.336,-92.31,
1257.351,-86.89,
1257.366,-87.99,
1257.381,-92.54,
1257.396,-92.53,
1257.411,-96.84,
1257.426,-210.0,
1257.441,-90.17,
1257.456,-90.45,
1257.471,-210.0,
1257.486,-210.0,
1257.501,-89.37,
1257.516,-93.36,
1257.531,-91.36,
1257.546,-86.01,
1257.561,-89.2,
1257.576,-90.86,
1257.591,-87.13,
1257.606,-86.45,
1257.621,-87.9,
1257.636,-86.6,
1257.651,-88.7,
1257.666,-210.0,
1257.681,-87.85,
1257.696,-84.3,
1257.711,-85.62,
1257.726,-87.82,
1257.741,-90.06,
1257.756,-89.96,
1257.771,-87.01,
1257.786,-84.15,
1257.801,-84.96,
1257.816,-88.17,
1257.831,-86.81,
1257.846,-84.85,
1257.861,-83.82,
1257.876,-83.37,
1257.891,-83.76,
1257.906,-86.93,
1257.921,-84.93,
1257.936,-83.1,
1257.951,-82.88,
1257.966,-83.44,
1257.981,-83.9,
1257.996,-83.93,
1258.011,-83.37,
1258.026,-82.09,
1258.041,-82.19,
1258.056,-83.73,
1258.071,-84.05,
1258.086,-83.29,
1258.101,-81.91,
1258.116,-81.48,
1258.131,-81.11,
1258.146,-81.57,
1258.161,-82.52,
1258.176,-81.45,
1258.191,-80.36,
1258.206,-80.28,
1258.221,-81.22,
1258.236,-81.57,
1258.251,-81.62,
1258.266,-81.38,
1258.281,-80.04,
1258.296,-80.43,
1258.311,-82.41,
1258.326,-82.49,
1258.341,-81.18,
1258.356,-80.8,
1258.371,-80.78,
1258.386,-81.4,
1258.401,-82.91,
1258.416,-82.66,
1258.431,-80.22,
1258.446,-80.02,
1258.461,-81.49,
1258.476,-82.04,
1258.491,-81.78,
1258.506,-81.41,
1258.521,-80.38,
1258.536,-80.57,
1258.551,-83.2,
1258.566,-84.05,
1258.581,-82.01,
1258.596,-81.59,
1258.611,-81.52,
1258.626,-81.83,
1258.641,-84.24,
1258.656,-84.61,
1258.671,-81.42,
1258.686,-80.7,
1258.701,-82.44,
1258.716,-83.58,
1258.731,-83.81,
1258.746,-83.53,
1258.761,-82.11,
1258.776,-82.03,
1258.791,-84.96,
1258.806,-90.26,
1258.821,-86.22,
1258.836,-84.48,
1258.851,-83.59,
1258.866,-83.6,
1258.881,-86.94,
1258.896,-90.41,
1258.911,-85.56,
1258.926,-83.51,
1258.941,-83.76,
1258.956,-85.92,
1258.971,-88.04,
1258.986,-87.9,
1259.001,-85.36,
1259.016,-84.28,
1259.031,-86.17,
1259.046,-103.83,
1259.061,-210.0,
1259.076,-90.3,
1259.091,-85.81,
1259.106,-86.13,
1259.121,-89.79,
1259.136,-210.0,
1259.151,-210.0,
1259.166,-87.82,
1259.181,-86.37,
1259.196,-92.05,
1259.211,-210.0,
1259.226,-210.0,
1259.241,-210.0,
1259.256,-93.28,
1259.271,-89.12,
1259.286,-210.0,
1259.301,-210.0,
1259.316,-90.51,
1259.331,-85.29,
1259.346,-85.59,
1259.361,-86.13,
1259.376,-86.92,
1259.391,-87.48,
1259.406,-85.0,
1259.421,-82.74,
1259.436,-84.03,
1259.451,-86.34,
1259.466,-85.71,
1259.481,-85.27,
1259.496,-84.72,
1259.511,-83.29,
1259.526,-83.78,
1259.541,-86.3,
1259.556,-84.93,
1259.571,-84.04,
1259.586,-85.26,
1259.601,-85.02,
1259.616,-85.49,
1259.631,-96.03,
1259.646,-210.0,
1259.661,-87.29,
1259.676,-86.56,
1259.691,-90.46,
1259.706,-91.44,
1259.721,-92.06,
1259.736,-92.67,
1259.751,-85.3,
1259.766,-84.11,
1259.781,-86.05,
1259.796,-85.58,
1259.811,-83.67,
1259.826,-83.56,
1259.841,-83.17,
1259.856,-82.99,
1259.871,-85.85,
1259.886,-87.13,
1259.901,-85.04,
1259.916,-84.14,
1259.931,-84.32,
1259.946,-84.36,
1259.961,-84.51,
1259.976,-85.39,
1259.991,-83.62,
1260.006,-82.9,
1260.021,-82.75,
1260.036,-83.34,
1260.051,-83.39,
1260.066,-83.53,
1260.081,-83.56,
1260.096,-82.85,
1260.111,-83.0,
1260.126,-83.87,
1260.141,-84.85,
1260.156,-83.61,
1260.171,-82.9,
1260.186,-82.96,
1260.201,-83.79,
1260.216,-84.92,
1260.231,-86.16,
1260.246,-84.15,
1260.261,-82.51,
1260.276,-82.85,
1260.291,-84.7,
1260.306,-85.46,
1260.321,-87.17,
1260.336,-85.77,
1260.351,-84.71,
1260.366,-86.83,
1260.381,-210.0,
1260.396,-210.0,
1260.411,-87.87,
1260.426,-88.63,
1260.441,-89.16,
1260.456,-210.0,
1260.471,-210.0,
1260.486,-210.0,
1260.501,-89.27,
1260.516,-91.7,
1260.531,-210.0,
1260.546,-210.0,
1260.561,-210.0,
1260.576,-210.0,
1260.591,-89.02,
1260.606,-87.8,
1260.621,-210.0,
1260.636,-96.44,
1260.651,-84.73,
1260.666,-84.13,
1260.681,-84.41,
1260.696,-86.29,
1260.711,-90.71,
1260.726,-90.77,
1260.741,-84.3,
1260.756,-83.68,
1260.771,-86.99,
1260.786,-89.06,
1260.801,-89.82,
1260.816,-87.43,
1260.831,-85.22,
1260.846,-85.79,
1260.861,-210.0,
1260.876,-210.0,
1260.891,-210.0,
1260.906,-90.16,
1260.921,-86.45,
1260.936,-87.73,
1260.951,-210.0,
1260.966,-210.0,
1260.981,-108.95,
1260.996,-87.72,
1261.011,-112.18,
1261.026,-210.0,
1261.041,-210.0,
1261.056,-210.0,
1261.071,-210.0,
1261.086,-90.81,
1261.101,-98.32,
1261.116,-210.0,
1261.131,-210.0,
1261.146,-210.0,
1261.161,-89.27,
1261.176,-94.5,
1261.191,-210.0,
1261.206,-210.0,
1261.221,-210.0,
1261.236,-85.81,
1261.251,-86.92,
1261.266,-210.0,
1261.281,-210.0,
1261.297,-210.0,
1261.312,-88.9,
1261.326,-85.97,
1261.341,-85.59,
1261.356,-210.0,
1261.371,-210.0,
1261.386,-210.0,
1261.401,-87.7,
1261.417,-91.05,
1261.432,-210.0,
1261.447,-210.0,
1261.461,-210.0,
1261.476,-210.0,
1261.491,-210.0,
1261.506,-210.0,
1261.521,-210.0,
1261.536,-210.0,
1261.552,-210.0,
1261.567,-210.0,
1261.582,-91.11,
1261.597,-210.0,
1261.611,-210.0,
1261.626,-210.0,
1261.641,-210.0,
1261.656,-210.0,
1261.672,-210.0,
1261.687,-210.0,
1261.702,-210.0,
1261.717,-210.0,
1261.732,-210.0,
1261.746,-210.0,
1261.761,-210.0,
1261.776,-210.0,
1261.792,-210.0,
1261.807,-210.0,
1261.822,-210.0,
1261.837,-210.0,
1261.852,-210.0,
1261.867,-210.0,
1261.882,-210.0,
1261.896,-210.0,
1261.911,-210.0,
1261.927,-210.0,
1261.942,-210.0,
1261.957,-210.0,
1261.972,-210.0,
1261.987,-210.0,
1262.002,-210.0,
1262.017,-210.0,
1262.031,-210.0,
1262.047,-210.0,
1262.062,-210.0,
1262.077,-210.0,
1262.092,-210.0,
1262.107,-210.0,
1262.122,-210.0,
1262.137,-210.0,
1262.152,-210.0,
1262.167,-210.0,
1262.182,-210.0,
1262.197,-210.0,
1262.212,-210.0,
1262.227,-210.0,
1262.242,-210.0,
1262.257,-210.0,
1262.272,-210.0,
1262.287,-210.0,
1262.302,-210.0,
1262.317,-210.0,
1262.332,-210.0,
1262.347,-210.0,
1262.362,-210.0,
1262.377,-210.0,
1262.392,-210.0,
1262.407,-210.0,
1262.422,-210.0,
1262.437,-210.0,
1262.452,-210.0,
1262.467,-210.0,
1262.482,-210.0,
1262.497,-210.0,
1262.512,-210.0,
1262.527,-210.0,
1262.542,-210.0,
1262.557,-210.0,
1262.572,-210.0,
1262.587,-210.0,
1262.602,-210.0,
1262.617,-210.0,
1262.632,-210.0,
1262.647,-210.0,
1262.662,-210.0,
1262.677,-210.0,
1262.692,-210.0,
1262.707,-210.0,
1262.722,-210.0,
1262.737,-210.0,
1262.752,-210.0,
1262.767,-210.0,
1262.782,-210.0,
1262.797,-210.0,
1262.812,-210.0,
1262.827,-210.0,
1262.842,-210.0,
1262.857,-210.0,
1262.872,-210.0,
1262.887,-210.0,
1262.902,-210.0,
1262.917,-210.0,
1262.932,-210.0,
1262.947,-210.0,
1262.962,-210.0,
1262.977,-210.0,
1262.992,-210.0,
1263.007,-210.0,
1263.022,-210.0,
1263.037,-210.0,
1263.052,-94.03,
1263.067,-87.62,
1263.082,-210.0,
1263.097,-210.0,
1263.112,-210.0,
1263.127,-210.0,
1263.142,-88.11,
1263.157,-88.69,
1263.172,-210.0,
1263.187,-210.0,
1263.202,-210.0,
1263.217,-92.01,
1263.232,-89.96,
1263.247,-89.05,
1263.262,-210.0,
1263.277,-210.0,
1263.292,-210.0,
1263.307,-87.8,
1263.322,-210.0,
1263.337,-210.0,
1263.352,-210.0,
1263.367,-210.0,
1263.382,-90.6,
1263.397,-89.54,
1263.412,-92.65,
1263.427,-210.0,
1263.442,-210.0,
1263.457,-92.5,
1263.472,-90.18,
1263.487,-89.22,
1263.502,-210.0,
1263.517,-210.0,
1263.532,-210.0,
1263.547,-87.0,
1263.562,-87.85,
1263.577,-210.0,
1263.592,-90.69,
1263.607,-210.0,
1263.622,-93.14,
1263.637,-87.95,
1263.652,-88.07,
1263.667,-210.0,
1263.682,-210.0,
1263.697,-99.92,
1263.712,-94.74,
1263.727,-89.74,
1263.742,-94.73,
1263.757,-210.0,
1263.772,-210.0,
1263.787,-93.68,
1263.802,-86.6,
1263.817,-90.15,
1263.832,-97.31,
1263.847,-210.0,
1263.862,-91.23,
1263.877,-91.91,
1263.892,-86.44,
1263.907,-90.16,
1263.922,-210.0,
1263.937,-210.0,
1263.952,-93.55,
1263.967,-88.3,
1263.982,-91.37,
1263.997,-101.67,
1264.012,-210.0,
1264.027,-210.0,
1264.042,-85.97,
1264.057,-88.34,
1264.072,-88.09,
1264.087,-89.59,
1264.102,-88.34,
1264.117,-86.02,
1264.132,-83.94,
1264.147,-85.19,
1264.162,-92.8,
1264.177,-87.61,
1264.192,-87.6,
1264.207,-86.84,
1264.222,-85.83,
1264.237,-84.31,
1264.252,-85.78,
1264.267,-87.45,
1264.282,-84.24,
1264.297,-84.01,
1264.312,-83.78,
1264.327,-83.59,
1264.342,-83.53,
1264.357,-83.86,
1264.372,-82.55,
1264.387,-82.15,
1264.402,-83.37,
1264.417,-82.95,
1264.432,-84.42,
1264.447,-84.91,
1264.462,-85.02,
1264.477,-82.96,
1264.492,-83.8,
1264.507,-88.23,
1264.522,-85.73,
1264.537,-86.31,
1264.552,-84.6,
1264.567,-85.13,
1264.582,-85.92,
1264.597,-92.49,
1264.612,-89.99,
1264.627,-83.42,
1264.642,-83.38,
1264.657,-83.53,
1264.672,-85.8,
1264.687,-85.14,
1264.702,-83.98,
1264.717,-82.66,
1264.732,-82.98,
1264.747,-92.91,
1264.762,-93.99,
1264.777,-87.28,
1264.792,-84.75,
1264.807,-85.77,
1264.822,-87.15,
1264.837,-92.87,
1264.852,-210.0,
1264.867,-86.1,
1264.882,-85.02,
1264.897,-85.97,
1264.912,-97.14,
1264.927,-210.0,
1264.942,-89.93,
1264.957,-86.64,
1264.972,-85.96,
1264.987,-210.0,
1265.002,-210.0,
1265.017,-210.0,
1265.032,-89.3,
1265.047,-87.95,
1265.062,-87.33,
1265.077,-96.46,
1265.092,-210.0,
1265.107,-210.0,
1265.122,-90.84,
1265.137,-88.45,
1265.152,-210.0,
1265.167,-210.0,
1265.182,-210.0,
1265.197,-87.4,
1265.212,-83.65,
1265.227,-85.73,
1265.242,-90.37,
1265.257,-210.0,
1265.272,-88.81,
1265.287,-85.91,
1265.302,-85.34,
1265.317,-86.59,
1265.332,-210.0,
1265.347,-210.0,
1265.362,-89.16,
1265.377,-86.36,
1265.392,-210.0,
1265.407,-210.0,
1265.422,-210.0,
1265.437,-210.0,
1265.452,-86.17,
1265.467,-85.41,
1265.482,-89.93,
1265.497,-210.0,
1265.512,-90.0,
1265.527,-85.41,
1265.542,-84.85,
1265.557,-84.76,
1265.572,-210.0,
1265.587,-96.48,
1265.602,-86.11,
1265.617,-83.63,
1265.632,-87.17,
1265.647,-210.0,
1265.662,-97.23,
1265.677,-210.0,
1265.692,-86.72,
1265.707,-87.55,
1265.722,-94.61,
1265.737,-210.0,
1265.752,-98.28,
1265.767,-84.94,
1265.782,-85.27,
1265.797,-84.55,
1265.812,-87.79,
1265.827,-88.9,
1265.842,-86.33,
1265.857,-84.49,
1265.872,-85.97,
1265.887,-91.62,
1265.902,-89.86,
1265.917,-95.93,
1265.932,-88.33,
1265.947,-87.21,
1265.962,-87.43,
1265.977,-99.33,
1265.992,-210.0,
1266.007,-89.42,
1266.022,-92.01,
1266.037,-88.22,
1266.052,-91.93,
1266.067,-210.0,
1266.082,-210.0,
1266.097,-90.03,
1266.112,-86.4,
1266.127,-88.88,
1266.142,-87.91,
1266.157,-210.0,
1266.172,-210.0,
1266.187,-99.82,
1266.202,-99.2,
1266.217,-210.0,
1266.232,-210.0,
1266.247,-210.0,
1266.262,-210.0,
1266.277,-210.0,
1266.292,-210.0,
1266.307,-210.0,
1266.322,-210.0,
1266.337,-210.0,
1266.352,-95.95,
1266.367,-210.0,
1266.382,-210.0,
1266.397,-210.0,
1266.412,-210.0,
1266.427,-210.0,
1266.442,-210.0,
1266.457,-210.0,
1266.472,-210.0,
1266.487,-210.0,
1266.502,-210.0,
1266.517,-210.0,
1266.532,-210.0,
1266.547,-210.0,
1266.562,-210.0,
1266.577,-210.0,
1266.592,-210.0,
1266.607,-210.0,
1266.622,-210.0,
1266.637,-210.0,
1266.652,-210.0,
1266.667,-210.0,
1266.682,-210.0,
1266.697,-210.0,
1266.712,-210.0,
1266.727,-210.0,
1266.742,-210.0,
1266.757,-210.0,
1266.772,-210.0,
1266.787,-210.0,
1266.802,-210.0,
1266.817,-210.0,
1266.832,-210.0,
1266.847,-210.0,
1266.862,-210.0,
1266.877,-210.0,
1266.892,-210.0,
1266.907,-210.0,
1266.922,-210.0,
1266.937,-210.0,
1266.952,-210.0,
1266.967,-210.0,
1266.982,-210.0,
1266.997,-210.0,
1267.012,-210.0,
1267.027,-210.0,
1267.042,-210.0,
1267.057,-210.0,
1267.072,-210.0,
1267.087,-210.0,
1267.102,-210.0,
1267.117,-210.0,
1267.132,-210.0,
1267.147,-210.0,
1267.162,-210.0,
1267.177,-210.0,
1267.192,-210.0,
1267.207,-210.0,
1267.222,-210.0,
1267.237,-210.0,
1267.252,-210.0,
1267.267,-94.28,
1267.282,-210.0,
1267.297,-210.0,
1267.312,-210.0,
1267.327,-210.0,
1267.342,-210.0,
1267.357,-210.0,
1267.372,-210.0,
1267.387,-210.0,
1267.402,-210.0,
1267.417,-210.0,
1267.432,-90.66,
1267.447,-210.0,
1267.462,-210.0,
1267.477,-210.0,
1267.492,-210.0,
1267.507,-96.72,
1267.522,-86.64,
1267.537,-210.0,
1267.552,-210.0,
1267.567,-210.0,
1267.582,-210.0,
1267.597,-90.23,
1267.612,-94.27,
1267.627,-210.0,
1267.642,-210.0,
1267.657,-210.0,
1267.672,-89.0,
1267.687,-91.71,
1267.702,-210.0,
1267.717,-210.0,
1267.732,-210.0,
1267.747,-89.56,
1267.762,-85.03,
1267.777,-89.97,
1267.792,-210.0,
1267.807,-210.0,
1267.822,-94.01,
1267.837,-85.91,
1267.852,-91.22,
1267.867,-210.0,
1267.882,-210.0,
1267.897,-210.0,
1267.912,-89.93,
1267.927,-91.36,
1267.942,-210.0,
1267.957,-210.0,
1267.972,-210.0,
1267.987,-210.0,
1268.002,-90.97,
1268.017,-210.0,
1268.032,-210.0,
1268.047,-210.0,
1268.062,-210.0,
1268.077,-210.0,
1268.092,-210.0,
1268.107,-210.0,
1268.122,-210.0,
1268.137,-210.0,
1268.152,-210.0,
1268.167,-210.0,
1268.182,-210.0,
1268.197,-210.0,
1268.212,-210.0,
1268.227,-210.0,
1268.242,-210.0,
1268.257,-210.0,
1268.272,-210.0,
1268.287,-210.0,
1268.302,-210.0,
1268.317,-210.0,
1268.332,-210.0,
1268.347,-210.0,
1268.362,-210.0,
1268.377,-210.0,
1268.392,-210.0,
1268.407,-210.0,
1268.422,-210.0,
1268.437,-210.0,
1268.452,-210.0,
1268.467,-210.0,
1268.482,-210.0,
1268.497,-210.0,
1268.512,-210.0,
1268.527,-210.0,
1268.542,-210.0,
1268.557,-210.0,
1268.572,-210.0,
1268.587,-210.0,
1268.602,-210.0,
1268.617,-210.0,
1268.632,-210.0,
1268.647,-210.0,
1268.662,-210.0,
1268.677,-210.0,
1268.692,-210.0,
1268.707,-210.0,
1268.722,-210.0,
1268.737,-210.0,
1268.752,-210.0,
1268.767,-210.0,
1268.782,-210.0,
1268.797,-210.0,
1268.812,-210.0,
1268.827,-210.0,
1268.842,-210.0,
1268.857,-210.0,
1268.872,-210.0,
1268.887,-210.0,
1268.902,-210.0,
1268.917,-210.0,
1268.932,-210.0,
1268.947,-210.0,
1268.962,-210.0,
1268.977,-210.0,
1268.992,-210.0,
1269.007,-210.0,
1269.022,-210.0,
1269.037,-210.0,
1269.052,-210.0,
1269.067,-90.13,
1269.082,-90.68,
1269.097,-210.0,
1269.112,-210.0,
1269.127,-210.0,
1269.142,-85.86,
1269.157,-87.62,
1269.172,-86.15,
1269.188,-90.26,
1269.202,-89.14,
1269.217,-86.78,
1269.232,-83.66,
1269.247,-83.93,
1269.262,-87.53,
1269.277,-87.67,
1269.292,-88.41,
1269.307,-84.58,
1269.323,-84.07,
1269.338,-87.77,
1269.352,-210.0,
1269.367,-210.0,
1269.382,-86.7,
1269.397,-88.86,
1269.412,-86.95,
1269.427,-95.87,
1269.443,-210.0,
1269.458,-210.0,
1269.473,-88.27,
1269.487,-86.22,
1269.502,-210.0,
1269.517,-210.0,
1269.532,-210.0,
1269.547,-84.67,
1269.563,-83.65,
1269.578,-84.54,
1269.593,-87.12,
1269.608,-86.98,
1269.623,-82.77,
1269.637,-83.14,
1269.652,-82.34,
1269.667,-83.28,
1269.682,-85.26,
1269.698,-84.92,
1269.713,-81.95,
1269.728,-80.71,
1269.743,-83.27,
1269.758,-83.12,
1269.772,-83.25,
1269.787,-81.99,
1269.802,-81.37,
1269.818,-81.55,
1269.833,-82.49,
1269.848,-84.47,
1269.863,-82.74,
1269.878,-82.63,
1269.893,-81.37,
1269.908,-82.33,
1269.922,-85.24,
1269.938,-85.69,
1269.953,-83.36,
1269.968,-81.13,
1269.983,-82.48,
1269.998,-84.19,
1270.013,-86.15,
1270.028,-84.68,
1270.043,-83.43,
1270.058,-82.93,
1270.073,-83.69,
1270.088,-89.61,
1270.103,-85.98,
1270.118,-84.05,
1270.133,-82.3,
1270.148,-83.71,
1270.163,-90.67,
1270.178,-210.0,
1270.193,-90.74,
1270.208,-84.34,
1270.223,-90.29,
1270.238,-210.0,
1270.253,-210.0,
1270.268,-210.0,
1270.283,-92.44,
1270.298,-88.16,
1270.313,-88.28,
1270.328,-210.0,
1270.343,-210.0,
1270.358,-95.28,
1270.373,-84.67,
1270.388,-87.18,
1270.403,-102.07,
1270.418,-210.0,
1270.433,-210.0,
1270.448,-85.64,
1270.463,-87.37,
1270.478,-88.54,
1270.493,-210.0,
1270.508,-210.0,
1270.523,-98.28,
1270.538,-89.48,
1270.553,-88.96,
1270.568,-210.0,
1270.583,-210.0,
1270.598,-210.0,
1270.613,-97.57,
1270.628,-210.0,
1270.643,-210.0,
1270.658,-210.0,
1270.673,-210.0,
1270.688,-210.0,
1270.703,-210.0,
1270.718,-210.0,
1270.733,-210.0,
1270.748,-210.0,
1270.763,-210.0,
1270.778,-210.0,
1270.793,-210.0,
1270.808,-210.0,
1270.823,-210.0,
1270.838,-210.0,
1270.853,-210.0,
1270.868,-210.0,
1270.883,-210.0,
1270.898,-210.0,
1270.913,-210.0,
1270.928,-210.0,
1270.943,-210.0,
1270.958,-210.0,
1270.973,-210.0,
1270.988,-210.0,
1271.003,-210.0,
1271.018,-210.0,
1271.033,-86.74,
1271.048,-210.0,
1271.063,-210.0,
1271.078,-210.0,
1271.093,-210.0,
1271.108,-210.0,
1271.123,-210.0,
1271.138,-98.94,
1271.153,-210.0,
1271.168,-210.0,
1271.183,-210.0,
1271.198,-91.3,
1271.213,-210.0,
1271.228,-210.0,
1271.243,-210.0,
1271.258,-210.0,
1271.273,-94.33,
1271.288,-95.18,
1271.303,-93.08,
1271.318,-210.0,
1271.333,-210.0,
1271.348,-210.0,
1271.363,-96.46,
1271.378,-91.63,
1271.393,-210.0,
1271.408,-210.0,
1271.423,-210.0,
1271.438,-210.0,
1271.453,-210.0,
1271.468,-210.0,
1271.483,-210.0,
1271.498,-210.0,
1271.513,-210.0,
1271.528,-210.0,
1271.543,-88.85,
1271.558,-210.0,
1271.573,-210.0,
1271.588,-210.0,
1271.603,-103.01,
1271.618,-88.73,
1271.633,-210.0,
1271.648,-210.0,
1271.663,-210.0,
1271.678,-95.7,
1271.693,-100.42,
1271.708,-91.21,
1271.723,-88.59,
1271.738,-210.0,
1271.753,-97.95,
1271.768,-87.6,
1271.783,-84.06,
1271.798,-88.99,
1271.813,-210.0,
1271.828,-92.98,
1271.843,-87.65,
1271.858,-83.1,
1271.873,-85.28,
1271.888,-88.07,
1271.903,-210.0,
1271.918,-87.38,
1271.933,-85.57,
1271.948,-84.55,
1271.963,-84.42,
1271.978,-210.0,
1271.993,-210.0,
1272.008,-88.74,
1272.023,-84.19,
1272.038,-90.06,
1272.053,-96.94,
1272.068,-95.88,
1272.083,-90.53,
1272.098,-84.33,
1272.113,-85.96,
1272.128,-86.18,
1272.143,-210.0,
1272.158,-101.68,
1272.173,-86.68,
1272.188,-83.96,
1272.203,-84.66,
1272.218,-210.0,
1272.233,-93.3,
1272.248,-85.8,
1272.263,-82.15,
1272.278,-85.4,
1272.293,-90.74,
1272.308,-91.38,
1272.323,-97.12,
1272.338,-86.61,
1272.353,-85.59,
1272.368,-84.63,
1272.383,-210.0,
1272.398,-89.39,
1272.413,-84.67,
1272.428,-83.49,
1272.443,-83.38,
1272.458,-88.87,
1272.473,-86.72,
1272.488,-86.06,
1272.503,-82.43,
1272.518,-83.83,
1272.533,-85.21,
1272.548,-85.9,
1272.563,-89.6,
1272.578,-85.64,
1272.593,-84.73,
1272.608,-83.01,
1272.623,-89.17,
1272.638,-88.46,
1272.653,-84.78,
1272.668,-83.53,
1272.683,-83.82,
1272.698,-86.17,
1272.713,-86.17,
1272.728,-103.02,
1272.743,-85.37,
1272.758,-87.37,
1272.773,-87.08,
1272.788,-93.3,
1272.803,-210.0,
1272.818,-210.0,
1272.833,-93.17,
1272.848,-86.97,
1272.863,-210.0,
1272.878,-210.0,
1272.893,-210.0,
1272.908,-210.0,
1272.923,-210.0,
1272.938,-210.0,
1272.953,-210.0,
1272.968,-210.0,
1272.983,-210.0,
1272.998,-210.0,
1273.013,-210.0,
1273.028,-210.0,
1273.043,-210.0,
1273.058,-210.0,
1273.073,-210.0,
1273.088,-97.65,
1273.103,-210.0,
1273.118,-210.0,
1273.133,-210.0,
1273.148,-210.0,
1273.163,-210.0,
1273.178,-210.0,
1273.193,-210.0,
1273.208,-210.0,
1273.223,-210.0,
1273.238,-210.0,
1273.253,-97.78,
1273.268,-210.0,
1273.283,-210.0,
1273.298,-210.0,
1273.313,-210.0,
1273.328,-88.66,
1273.343,-95.63,
1273.358,-210.0,
1273.373,-210.0,
1273.388,-210.0,
1273.403,-210.0,
1273.418,-92.25,
1273.433,-88.88,
1273.448,-210.0,
1273.463,-210.0,
1273.478,-210.0,
1273.493,-93.56,
1273.508,-210.0,
1273.523,-210.0,
1273.538,-210.0,
1273.553,-210.0,
1273.568,-210.0,
1273.583,-210.0,
1273.598,-210.0,
1273.613,-210.0,
1273.628,-210.0,
1273.643,-210.0,
1273.658,-210.0,
1273.673,-93.83,
1273.688,-210.0,
1273.703,-210.0,
1273.718,-210.0,
1273.733,-87.72,
1273.748,-89.83,
1273.763,-210.0,
1273.778,-210.0,
1273.793,-210.0,
1273.808,-91.23,
1273.823,-88.16,
1273.838,-86.71,
1273.853,-210.0,
1273.868,-210.0,
1273.883,-89.49,
1273.898,-86.01,
1273.913,-83.92,
1273.928,-91.28,
1273.943,-88.45,
1273.958,-86.55,
1273.973,-83.86,
1273.988,-83.81,
1274.003,-84.31,
1274.018,-87.12,
1274.033,-210.0,
1274.048,-85.99,
1274.063,-82.96,
1274.078,-82.15,
1274.093,-86.79,
1274.108,-86.69,
1274.123,-84.68,
1274.138,-83.36,
1274.153,-81.54,
1274.168,-83.57,
1274.183,-83.09,
1274.198,-84.71,
1274.213,-82.01,
1274.228,-81.36,
1274.243,-81.46,
1274.258,-82.83,
1274.273,-87.48,
1274.288,-83.68,
1274.303,-82.01,
1274.318,-81.38,
1274.333,-84.79,
1274.348,-86.52,
1274.363,-85.48,
1274.378,-85.03,
1274.393,-82.6,
1274.408,-83.8,
1274.423,-84.61,
1274.438,-87.89,
1274.453,-84.07,
1274.468,-82.22,
1274.483,-81.82,
1274.498,-82.69,
1274.513,-86.86,
1274.528,-83.29,
1274.543,-81.75,
1274.558,-80.79,
1274.573,-82.71,
1274.588,-83.33,
1274.603,-83.25,
1274.618,-83.3,
1274.633,-81.09,
1274.648,-81.72,
1274.663,-82.74,
1274.678,-85.81,
1274.693,-83.06,
1274.708,-81.69,
1274.723,-81.69,
1274.738,-82.64,
1274.753,-86.13,
1274.768,-83.0,
1274.783,-82.45,
1274.798,-81.41,
1274.813,-83.35,
1274.828,-84.14,
1274.843,-86.17,
1274.858,-87.02,
1274.873,-82.52,
1274.888,-82.43,
1274.903,-83.04,
1274.918,-88.99,
1274.933,-84.53,
1274.948,-82.6,
1274.963,-82.52,
1274.978,-83.25,
1274.993,-86.23,
1275.008,-84.85,
1275.023,-84.24,
1275.038,-82.01,
1275.053,-82.83,
1275.068,-84.2,
1275.083,-86.61,
1275.098,-89.51,
1275.113,-84.25,
1275.128,-83.97,
1275.143,-84.03,
1275.158,-111.95,
1275.173,-88.41,
1275.188,-88.05,
1275.203,-88.32,
1275.218,-89.33,
1275.233,-210.0,
1275.248,-210.0,
1275.263,-210.0,
1275.278,-86.26,
1275.293,-86.31,
1275.308,-89.21,
1275.323,-210.0,
1275.338,-210.0,
1275.353,-86.16,
1275.368,-86.4,
1275.383,-85.06,
1275.398,-94.54,
1275.413,-88.77,
1275.428,-89.03,
1275.443,-89.2,
1275.458,-85.51,
1275.473,-87.31,
1275.488,-89.24,
1275.503,-210.0,
1275.518,-88.82,
1275.533,-86.08,
1275.548,-87.29,
1275.563,-210.0,
1275.578,-210.0,
1275.593,-210.0,
1275.608,-210.0,
1275.623,-90.51,
1275.638,-210.0,
1275.653,-210.0,
1275.668,-210.0,
1275.683,-210.0,
1275.698,-90.6,
1275.713,-95.51,
1275.728,-210.0,
1275.743,-210.0,
1275.758,-210.0,
1275.773,-210.0,
1275.788,-210.0,
1275.803,-210.0,
1275.818,-210.0,
1275.833,-210.0,
1275.848,-210.0,
1275.863,-85.74,
1275.878,-87.56,
1275.893,-91.98,
1275.908,-210.0,
1275.923,-210.0,
1275.938,-85.72,
1275.953,-86.53,
1275.968,-91.4,
1275.983,-210.0,
1275.998,-96.02,
1276.013,-90.38,
1276.028,-88.06,
1276.043,-90.75,
1276.058,-210.0,
1276.073,-210.0,
1276.088,-210.0,
1276.103,-84.36,
1276.118,-84.87,
1276.133,-87.53,
1276.148,-210.0,
1276.163,-94.27,
1276.178,-84.64,
1276.193,-83.97,
1276.208,-83.92,
1276.223,-88.88,
1276.238,-84.35,
1276.253,-83.8,
1276.268,-82.59,
1276.283,-83.29,
1276.298,-85.55,
1276.313,-87.75,
1276.328,-92.98,
1276.343,-83.02,
1276.358,-83.3,
1276.373,-84.2,
1276.388,-88.2,
1276.403,-85.61,
1276.418,-83.02,
1276.433,-82.56,
1276.448,-82.35,
1276.463,-86.02,
1276.478,-84.47,
1276.493,-84.01,
1276.508,-81.89,
1276.523,-81.53,
1276.538,-83.21,
1276.553,-84.65,
1276.568,-85.22,
1276.583,-81.21,
1276.598,-81.4,
1276.613,-82.03,
1276.628,-84.07,
1276.643,-83.08,
1276.658,-81.85,
1276.673,-81.78,
1276.688,-80.86,
1276.703,-83.53,
1276.718,-84.46,
1276.733,-85.51,
1276.748,-81.86,
1276.763,-80.99,
1276.778,-82.14,
1276.793,-83.5,
1276.808,-84.85,
1276.823,-81.33,
1276.838,-81.39,
1276.853,-81.75,
1276.868,-83.79,
1276.883,-83.86,
1276.898,-82.98,
1276.913,-82.12,
1276.928,-81.11,
1276.943,-83.25,
1276.958,-84.52,
1276.973,-85.71,
1276.988,-81.57,
1277.003,-81.45,
1277.018,-82.13,
1277.033,-82.88,
1277.048,-83.99,
1277.063,-81.26,
1277.078,-82.01,
1277.093,-81.43,
1277.108,-83.48,
1277.123,-84.38,
1277.138,-84.87,
1277.153,-82.95,
1277.168,-81.19,
1277.183,-83.42,
1277.198,-86.4,
1277.214,-88.71,
1277.228,-82.8,
1277.243,-83.67,
1277.258,-85.39,
1277.273,-86.26,
1277.288,-91.59,
1277.303,-85.64,
1277.318,-85.77,
1277.333,-82.82,
1277.349,-85.16,
1277.364,-87.82,
1277.378,-91.19,
1277.393,-87.31,
1277.408,-83.68,
1277.423,-88.27,
1277.438,-210.0,
1277.453,-210.0,
1277.469,-87.61,
1277.484,-89.54,
1277.499,-210.0,
1277.514,-210.0,
1277.528,-210.0,
1277.543,-101.71,
1277.558,-210.0,
1277.573,-86.79,
1277.589,-210.0,
1277.604,-210.0,
1277.619,-210.0,
1277.634,-210.0,
1277.649,-85.8,
1277.663,-95.09,
1277.678,-210.0,
1277.693,-210.0,
1277.708,-90.23,
1277.724,-91.15,
1277.739,-88.31,
1277.754,-91.93,
1277.769,-210.0,
1277.784,-210.0,
1277.799,-210.0,
1277.813,-89.59,
1277.828,-210.0,
1277.844,-210.0,
1277.859,-210.0,
1277.874,-210.0,
1277.889,-210.0,
1277.904,-210.0,
1277.919,-210.0,
1277.934,-210.0,
1277.948,-210.0,
1277.964,-210.0,
1277.979,-210.0,
1277.994,-210.0,
1278.009,-210.0,
1278.024,-210.0,
1278.039,-210.0,
1278.054,-91.38,
1278.069,-210.0,
1278.084,-210.0,
1278.099,-210.0,
1278.114,-210.0,
1278.129,-210.0,
1278.144,-95.47,
1278.159,-93.34,
1278.174,-210.0,
1278.189,-210.0,
1278.204,-210.0,
1278.219,-108.88,
1278.234,-210.0,
1278.249,-210.0,
1278.264,-210.0,
1278.279,-210.0,
1278.294,-88.47,
1278.309,-210.0,
1278.324,-104.32,
1278.339,-210.0,
1278.354,-210.0,
1278.369,-97.8,
1278.384,-87.57,
1278.399,-85.42,
1278.414,-210.0,
1278.429,-107.33,
1278.444,-91.99,
1278.459,-83.98,
1278.474,-84.28,
1278.489,-88.97,
1278.504,-89.67,
1278.519,-91.44,
1278.534,-84.37,
1278.549,-87.12,
1278.564,-85.54,
1278.579,-96.66,
1278.594,-210.0,
1278.609,-89.91,
1278.624,-85.31,
1278.639,-85.27,
1278.654,-210.0,
1278.669,-210.0,
1278.684,-210.0,
1278.699,-85.06,
1278.714,-86.36,
1278.729,-89.43,
1278.744,-90.91,
1278.759,-210.0,
1278.774,-86.09,
1278.789,-87.14,
1278.804,-85.27,
1278.819,-210.0,
1278.834,-210.0,
1278.849,-91.95,
1278.864,-84.09,
1278.879,-84.16,
1278.894,-210.0,
1278.909,-91.27,
1278.924,-89.54,
1278.939,-84.85,
1278.954,-86.88,
1278.969,-89.57,
1278.984,-97.73,
1278.999,-210.0,
1279.014,-117.05,
1279.029,-93.6,
1279.044,-88.91,
1279.059,-210.0,
1279.074,-210.0,
1279.089,-210.0,
1279.104,-210.0,
1279.119,-93.17,
1279.134,-210.0,
1279.149,-210.0,
1279.164,-210.0,
1279.179,-210.0,
1279.194,-97.14,
1279.209,-89.54,
1279.224,-210.0,
1279.239,-210.0,
1279.254,-210.0,
1279.269,-93.29,
1279.284,-88.36,
1279.299,-210.0,
1279.314,-210.0,
1279.329,-210.0,
1279.344,-94.7,
1279.359,-95.42,
1279.374,-210.0,
1279.389,-210.0,
1279.404,-210.0,
1279.419,-210.0,
1279.434,-210.0,
1279.449,-210.0,
1279.464,-210.0,
1279.479,-210.0,
1279.494,-210.0,
1279.509,-210.0,
1279.524,-210.0,
1279.539,-210.0,
1279.554,-210.0,
1279.569,-210.0,
1279.584,-210.0,
1279.599,-210.0,
1279.614,-210.0,
1279.629,-210.0,
1279.644,-210.0,
1279.659,-210.0,
1279.674,-210.0,
1279.689,-210.0,
1279.704,-210.0,
1279.719,-210.0,
1279.734,-210.0,
1279.749,-210.0,
1279.764,-210.0,
1279.779,-210.0,
1279.794,-210.0,
1279.809,-210.0,
1279.824,-210.0,
1279.839,-91.23,
1279.854,-210.0,
1279.869,-210.0,
1279.884,-210.0,
1279.899,-91.23,
1279.914,-89.27,
1279.929,-88.39,
1279.944,-210.0,
1279.959,-210.0,
1279.974,-110.2,
1279.989,-89.52,
1280.004,-85.84,
1280.019,-90.77,
1280.034,-88.63,
1280.049,-210.0,
1280.064,-86.86,
1280.079,-83.39,
1280.094,-84.09,
1280.109,-85.54,
1280.124,-210.0,
1280.139,-85.65,
1280.154,-84.58,
1280.169,-84.47,
1280.184,-89.66,
1280.199,-210.0,
1280.214,-89.21,
1280.229,-86.96,
1280.244,-84.24,
1280.259,-86.57,
1280.274,-85.45,
1280.289,-93.02,
1280.304,-85.22,
1280.319,-82.58,
1280.334,-83.68,
1280.349,-85.8,
1280.364,-93.18,
1280.379,-84.69,
1280.394,-84.4,
1280.409,-82.85,
1280.424,-84.63,
1280.439,-86.86,
1280.454,-86.09,
1280.469,-84.83,
1280.484,-82.5,
1280.499,-84.38,
1280.514,-84.17,
1280.529,-91.81,
1280.544,-85.0,
1280.559,-82.72,
1280.574,-83.04,
1280.589,-85.07,
1280.604,-88.25,
1280.619,-83.58,
1280.634,-84.53,
1280.649,-83.11,
1280.664,-83.56,
1280.679,-84.71,
1280.694,-86.51,
1280.709,-87.24,
1280.724,-82.91,
1280.739,-84.23,
1280.754,-84.65,
1280.769,-90.93,
1280.784,-84.3,
1280.799,-82.57,
1280.814,-82.6,
1280.829,-83.69,
1280.844,-86.25,
1280.859,-84.07,
1280.874,-86.37,
1280.889,-82.79,
1280.904,-83.57,
1280.919,-85.26,
1280.934,-88.33,
1280.949,-85.17,
1280.964,-81.88,
1280.979,-82.66,
1280.994,-83.21,
1281.009,-86.74,
1281.024,-83.68,
1281.039,-83.14,
1281.054,-82.08,
1281.069,-82.37,
1281.084,-83.74,
1281.099,-83.08,
1281.114,-84.58,
1281.129,-81.41,
1281.144,-81.57,
1281.159,-83.6,
1281.174,-87.8,
1281.189,-85.56,
1281.204,-82.0,
1281.219,-83.25,
1281.234,-84.01,
1281.249,-87.28,
1281.264,-84.63,
1281.279,-85.57,
1281.294,-84.07,
1281.309,-84.36,
1281.324,-91.59,
1281.339,-87.3,
1281.354,-89.14,
1281.369,-82.77,
1281.384,-82.97,
1281.399,-84.85,
1281.414,-94.06,
1281.429,-87.7,
1281.444,-83.52,
1281.459,-84.72,
1281.474,-84.51,
1281.489,-89.14,
1281.504,-86.08,
1281.519,-87.89,
1281.534,-83.16,
1281.549,-82.92,
1281.564,-86.62,
1281.579,-90.79,
1281.594,-210.0,
1281.609,-83.89,
1281.624,-85.9,
1281.639,-89.48,
1281.654,-210.0,
1281.669,-95.29,
1281.684,-86.64,
1281.699,-86.85,
1281.714,-85.06,
1281.729,-210.0,
1281.744,-210.0,
1281.759,-210.0,
1281.774,-85.38,
1281.789,-85.51,
1281.804,-101.58,
1281.819,-210.0,
1281.834,-210.0,
1281.849,-85.34,
1281.864,-93.08,
1281.879,-112.55,
1281.894,-210.0,
1281.909,-210.0,
1281.924,-210.0,
1281.939,-210.0,
1281.954,-98.48,
1281.969,-210.0,
1281.984,-210.0,
1281.999,-210.0,
1282.014,-210.0,
1282.029,-210.0,
1282.044,-210.0,
1282.059,-210.0,
1282.074,-210.0,
1282.089,-210.0,
1282.104,-210.0,
1282.119,-210.0,
1282.134,-210.0,
1282.149,-210.0,
1282.164,-210.0,
1282.179,-210.0,
1282.194,-210.0,
1282.209,-210.0,
1282.224,-210.0,
1282.239,-210.0,
1282.254,-210.0,
1282.269,-210.0,
1282.284,-210.0,
1282.299,-210.0,
1282.314,-210.0,
1282.329,-210.0,
1282.344,-210.0,
1282.359,-210.0,
1282.374,-210.0,
1282.389,-210.0,
1282.404,-210.0,
1282.419,-210.0,
1282.434,-210.0,
1282.449,-210.0,
1282.464,-210.0,
1282.479,-210.0,
1282.494,-210.0,
1282.509,-210.0,
1282.524,-210.0,
1282.539,-210.0,
1282.554,-210.0,
1282.569,-210.0,
1282.584,-210.0,
1282.599,-210.0,
1282.614,-210.0,
1282.629,-210.0,
1282.644,-210.0,
1282.659,-210.0,
1282.674,-210.0,
1282.689,-210.0,
1282.704,-210.0,
1282.719,-210.0,
1282.734,-210.0,
1282.749,-210.0,
1282.764,-210.0,
1282.779,-210.0,
1282.794,-210.0,
1282.809,-210.0,
1282.824,-210.0,
1282.839,-92.74,
1282.854,-210.0,
1282.869,-210.0,
1282.884,-210.0,
1282.899,-88.72,
1282.914,-93.97,
1282.929,-210.0,
1282.944,-210.0,
1282.959,-210.0,
1282.974,-89.83,
1282.989,-86.71,
1283.004,-84.14,
1283.019,-90.23,
1283.034,-90.2,
1283.049,-84.91,
1283.064,-82.84,
1283.079,-81.77,
1283.094,-86.53,
1283.109,-86.92,
1283.124,-87.5,
1283.139,-83.68,
1283.154,-84.25,
1283.169,-85.41,
1283.184,-86.07,
1283.199,-89.91,
1283.214,-85.58,
1283.229,-83.69,
1283.244,-82.45,
1283.259,-88.69,
1283.274,-89.1,
1283.289,-85.37,
1283.304,-83.26,
1283.319,-83.15,
1283.334,-88.9,
1283.349,-88.01,
1283.364,-90.62,
1283.379,-84.5,
1283.394,-84.18,
1283.409,-83.73,
1283.424,-86.48,
1283.439,-210.0,
1283.454,-86.77,
1283.469,-83.49,
1283.484,-82.6,
1283.499,-92.5,
1283.514,-90.37,
1283.529,-86.61,
1283.544,-83.62,
1283.559,-83.22,
1283.574,-84.43,
1283.589,-84.41,
1283.604,-89.3,
1283.619,-83.41,
1283.634,-82.95,
1283.649,-82.37,
1283.664,-85.45,
1283.679,-98.2,
1283.694,-85.75,
1283.709,-83.45,
1283.724,-83.18,
1283.739,-93.26,
1283.754,-88.1,
1283.769,-87.9,
1283.784,-84.88,
1283.799,-83.51,
1283.814,-83.69,
1283.829,-85.08,
1283.844,-210.0,
1283.859,-84.92,
1283.874,-83.97,
1283.889,-83.24,
1283.904,-94.59,
1283.919,-210.0,
1283.934,-87.91,
1283.949,-85.22,
1283.964,-84.89,
1283.979,-95.84,
1283.994,-210.0,
1284.009,-210.0,
1284.024,-98.03,
1284.039,-88.68,
1284.054,-89.17,
1284.069,-210.0,
1284.084,-210.0,
1284.099,-210.0,
1284.114,-93.26,
1284.129,-89.81,
1284.144,-210.0,
1284.159,-210.0,
1284.174,-210.0,
1284.189,-210.0,
1284.204,-210.0,
1284.219,-210.0,
1284.234,-210.0,
1284.249,-210.0,
1284.264,-210.0,
1284.279,-210.0,
1284.294,-210.0,
1284.309,-210.0,
1284.324,-210.0,
1284.339,-210.0,
1284.354,-210.0,
1284.369,-210.0,
1284.384,-210.0,
1284.399,-210.0,
1284.414,-210.0,
1284.429,-210.0,
1284.444,-210.0,
1284.459,-210.0,
1284.474,-210.0,
1284.489,-210.0,
1284.504,-210.0,
1284.519,-210.0,
1284.534,-210.0,
1284.549,-210.0,
1284.564,-210.0,
1284.579,-210.0,
1284.594,-210.0,
1284.609,-210.0,
1284.624,-210.0,
1284.639,-210.0,
1284.654,-210.0,
1284.669,-210.0,
1284.684,-210.0,
1284.699,-210.0,
1284.714,-210.0,
1284.729,-210.0,
1284.744,-210.0,
1284.759,-210.0,
1284.774,-210.0,
1284.789,-210.0,
1284.804,-210.0,
1284.819,-210.0,
1284.834,-210.0,
1284.849,-210.0,
1284.864,-210.0,
1284.879,-210.0,
1284.894,-210.0,
1284.909,-210.0,
1284.924,-210.0,
1284.939,-210.0,
1284.954,-210.0,
1284.969,-210.0,
1284.984,-210.0,
1284.999,-210.0,
1285.014,-210.0,
1285.029,-210.0,
1285.044,-210.0,
1285.059,-210.0,
1285.074,-210.0,
1285.089,-210.0,
1285.104,-210.0,
1285.119,-210.0,
1285.134,-210.0,
1285.149,-210.0,
1285.164,-210.0,
1285.179,-210.0,
1285.194,-210.0,
1285.209,-210.0,
1285.224,-210.0,
1285.24,-210.0,
1285.255,-93.87,
1285.269,-210.0,
1285.284,-210.0,
1285.299,-210.0,
1285.314,-92.29,
1285.329,-85.08,
1285.344,-86.19,
1285.359,-210.0,
1285.375,-210.0,
1285.39,-88.84,
1285.404,-87.53,
1285.419,-87.21,
1285.434,-210.0,
1285.449,-210.0,
1285.464,-210.0,
1285.479,-210.0,
1285.495,-87.44,
1285.51,-210.0,
1285.525,-210.0,
1285.54,-210.0,
1285.554,-97.21,
1285.569,-87.69,
1285.584,-87.91,
1285.599,-210.0,
1285.615,-210.0,
1285.63,-91.89,
1285.645,-89.98,
1285.66,-86.25,
1285.675,-90.35,
1285.689,-88.86,
1285.704,-210.0,
1285.719,-90.72,
1285.734,-84.43,
1285.75,-86.73,
1285.765,-99.79,
1285.78,-210.0,
1285.795,-86.33,
1285.81,-85.71,
1285.825,-84.22,
1285.839,-86.25,
1285.854,-89.29,
1285.87,-87.66,
1285.885,-89.75,
1285.9,-84.39,
1285.915,-85.97,
1285.93,-86.62,
1285.945,-98.38,
1285.96,-84.35,
1285.974,-81.71,
1285.99,-82.73,
1286.005,-83.97,
1286.02,-86.47,
1286.035,-82.61,
1286.05,-83.36,
1286.065,-82.24,
1286.08,-83.21,
1286.095,-83.77,
1286.11,-84.52,
1286.125,-82.67,
1286.14,-80.47,
1286.155,-81.86,
1286.17,-82.27,
1286.185,-84.5,
1286.2,-81.96,
1286.215,-80.8,
1286.23,-81.0,
1286.245,-82.04,
1286.26,-83.06,
1286.275,-81.8,
1286.29,-82.45,
1286.305,-80.91,
1286.32,-81.93,
1286.335,-83.84,
1286.35,-87.89,
1286.365,-84.44,
1286.38,-81.68,
1286.395,-83.56,
1286.41,-84.59,
1286.425,-86.92,
1286.44,-83.07,
1286.455,-82.56,
1286.47,-81.95,
1286.485,-82.22,
1286.5,-83.18,
1286.515,-83.33,
1286.53,-83.91,
1286.545,-81.1,
1286.56,-82.66,
1286.575,-84.37,
1286.59,-89.68,
1286.605,-82.95,
1286.62,-81.05,
1286.635,-82.12,
1286.65,-82.98,
1286.665,-85.26,
1286.68,-83.44,
1286.695,-84.7,
1286.71,-82.22,
1286.725,-83.35,
1286.74,-85.44,
1286.755,-86.95,
1286.77,-84.27,
1286.785,-81.84,
1286.8,-83.09,
1286.815,-83.83,
1286.83,-88.53,
1286.845,-83.69,
1286.86,-83.3,
1286.875,-83.15,
1286.89,-82.69,
1286.905,-84.08,
1286.92,-84.04,
1286.935,-85.41,
1286.95,-82.12,
1286.965,-83.56,
1286.98,-85.03,
1286.995,-88.87,
1287.01,-86.36,
1287.025,-82.87,
1287.04,-85.48,
1287.055,-86.97,
1287.07,-91.62,
1287.085,-84.6,
1287.1,-85.56,
1287.115,-83.78,
1287.13,-84.65,
1287.145,-88.76,
1287.16,-91.1,
1287.175,-91.6,
1287.19,-83.07,
1287.205,-84.4,
1287.22,-85.23,
1287.235,-91.55,
1287.25,-84.65,
1287.265,-83.14,
1287.28,-83.68,
1287.295,-83.17,
1287.31,-85.25,
1287.325,-84.25,
1287.34,-84.2,
1287.355,-81.27,
1287.37,-81.11,
1287.385,-82.66,
1287.4,-84.33,
1287.415,-82.36,
1287.43,-81.2,
1287.445,-82.45,
1287.46,-82.97,
1287.475,-84.72,
1287.49,-83.27,
1287.505,-84.25,
1287.52,-82.84,
1287.535,-82.72,
1287.55,-84.95,
1287.565,-84.83,
1287.58,-84.63,
1287.595,-81.17,
1287.61,-82.52,
1287.625,-84.7,
1287.64,-88.12,
1287.655,-85.41,
1287.67,-83.42,
1287.685,-85.47,
1287.7,-84.89,
1287.715,-88.12,
1287.73,-87.58,
1287.745,-87.86,
1287.76,-82.82,
1287.775,-83.25,
1287.79,-85.14,
1287.805,-86.46,
1287.82,-84.09,
1287.835,-81.55,
1287.85,-83.16,
1287.865,-83.45,
1287.88,-85.57,
1287.895,-84.04,
1287.91,-83.56,
1287.925,-83.56,
1287.94,-82.42,
1287.955,-83.65,
1287.97,-83.57,
1287.985,-83.71,
1288.0,-80.88,
1288.015,-81.66,
1288.03,-83.35,
1288.045,-84.39,
1288.06,-82.26,
1288.075,-81.37,
1288.09,-82.25,
1288.105,-82.17,
1288.12,-84.37,
1288.135,-83.12,
1288.15,-83.22,
1288.165,-81.48,
1288.18,-81.58,
1288.195,-83.87,
1288.21,-84.34,
1288.225,-84.64,
1288.24,-81.66,
1288.255,-83.32,
1288.27,-84.86,
1288.285,-87.6,
1288.3,-85.9,
1288.315,-85.75,
1288.33,-85.55,
1288.345,-85.28,
1288.36,-91.89,
1288.375,-210.0,
1288.39,-92.69,
1288.405,-83.55,
1288.42,-85.63,
1288.435,-89.62,
1288.45,-95.17,
1288.465,-87.34,
1288.48,-84.26,
1288.495,-85.91,
1288.51,-84.7,
1288.525,-90.2,
1288.54,-85.15,
1288.555,-85.04,
1288.57,-83.27,
1288.585,-82.71,
1288.6,-86.64,
1288.615,-89.83,
1288.63,-86.95,
1288.645,-82.84,
1288.66,-84.78,
1288.675,-86.4,
1288.69,-88.9,
1288.705,-84.76,
1288.72,-84.71,
1288.735,-85.35,
1288.75,-85.36,
1288.765,-95.43,
1288.78,-94.22,
1288.795,-93.15,
1288.81,-84.11,
1288.825,-88.4,
1288.84,-210.0,
1288.855,-210.0,
1288.87,-210.0,
1288.885,-86.88,
1288.9,-210.0,
1288.915,-210.0,
1288.93,-210.0,
1288.945,-210.0,
1288.96,-210.0,
1288.975,-98.44,
1288.99,-210.0,
1289.005,-210.0,
1289.02,-210.0,
1289.035,-210.0,
1289.05,-96.16,
1289.065,-210.0,
1289.08,-210.0,
1289.095,-210.0,
1289.11,-210.0,
1289.125,-210.0,
1289.14,-210.0,
1289.155,-210.0,
1289.17,-210.0,
1289.185,-210.0,
1289.2,-210.0,
1289.215,-210.0,
1289.23,-210.0,
1289.245,-210.0,
1289.26,-210.0,
1289.275,-210.0,
1289.29,-92.13,
1289.305,-210.0,
1289.32,-210.0,
1289.335,-210.0,
1289.35,-210.0,
1289.365,-210.0,
1289.38,-91.88,
1289.395,-210.0,
1289.41,-210.0,
1289.425,-210.0,
1289.44,-210.0,
1289.455,-88.94,
1289.47,-210.0,
1289.485,-210.0,
1289.5,-210.0,
1289.515,-210.0,
1289.53,-92.74,
1289.545,-210.0,
1289.56,-210.0,
1289.575,-210.0,
1289.59,-210.0,
1289.605,-210.0,
1289.62,-88.67,
1289.635,-91.33,
1289.65,-210.0,
1289.665,-210.0,
1289.68,-90.18,
1289.695,-84.09,
1289.71,-91.09,
1289.725,-89.95,
1289.74,-89.06,
1289.755,-84.49,
1289.77,-83.5,
1289.785,-83.49,
1289.8,-83.9,
1289.815,-93.93,
1289.83,-86.87,
1289.845,-85.46,
1289.86,-82.98,
1289.875,-85.37,
1289.89,-93.72,
1289.905,-89.57,
1289.92,-86.75,
1289.935,-85.13,
1289.95,-92.07,
1289.965,-90.74,
1289.98,-210.0,
1289.995,-210.0,
1290.01,-94.75,
1290.025,-86.81,
1290.04,-90.64,
1290.055,-210.0,
1290.07,-114.06,
1290.085,-89.7,
1290.1,-85.03,
1290.115,-95.22,
1290.13,-92.83,
1290.145,-91.48,
1290.16,-87.61,
1290.175,-85.02,
1290.19,-86.73,
1290.205,-86.41,
1290.22,-210.0,
1290.235,-88.37,
1290.25,-86.18,
1290.265,-83.8,
1290.28,-87.03,
1290.295,-210.0,
1290.31,-91.0,
1290.325,-85.91,
1290.34,-84.24,
1290.355,-90.44,
1290.37,-88.86,
1290.385,-96.04,
1290.4,-86.27,
1290.415,-84.82,
1290.43,-84.25,
1290.445,-86.3,
1290.46,-210.0,
1290.475,-87.48,
1290.49,-84.57,
1290.505,-82.67,
1290.52,-88.74,
1290.535,-210.0,
1290.55,-92.04,
1290.565,-87.62,
1290.58,-85.56,
1290.595,-88.48,
1290.61,-88.96,
1290.625,-210.0,
1290.64,-91.61,
1290.655,-86.48,
1290.67,-84.49,
1290.685,-94.8,
1290.7,-210.0,
1290.715,-210.0,
1290.73,-210.0,
1290.745,-92.57,
1290.76,-210.0,
1290.775,-210.0,
1290.79,-210.0,
1290.805,-210.0,
1290.82,-210.0,
1290.835,-210.0,
1290.85,-210.0,
1290.865,-210.0,
1290.88,-210.0,
1290.895,-93.31,
1290.91,-88.23,
1290.925,-210.0,
1290.94,-210.0,
1290.955,-92.56,
1290.97,-85.98,
1290.985,-84.32,
1291.0,-86.09,
1291.015,-85.96,
1291.03,-91.11,
1291.045,-85.58,
1291.06,-83.7,
1291.075,-83.24,
1291.09,-85.65,
1291.105,-102.28,
1291.12,-85.48,
1291.135,-83.02,
1291.15,-82.71,
1291.165,-87.32,
1291.18,-86.69,
1291.195,-86.16,
1291.21,-84.07,
1291.225,-82.74,
1291.24,-83.6,
1291.255,-85.69,
1291.27,-93.93,
1291.285,-85.18,
1291.3,-83.04,
1291.315,-82.24,
1291.33,-86.26,
1291.345,-87.77,
1291.36,-84.48,
1291.375,-83.0,
1291.39,-82.72,
1291.405,-85.62,
1291.42,-85.19,
1291.435,-87.31,
1291.45,-83.66,
1291.465,-82.12,
1291.48,-82.49,
1291.495,-85.93,
1291.51,-103.49,
1291.525,-84.13,
1291.54,-82.75,
1291.555,-82.75,
1291.57,-86.7,
1291.585,-85.4,
1291.6,-84.6,
1291.615,-83.49,
1291.63,-82.81,
1291.645,-84.39,
1291.66,-86.08,
1291.675,-90.34,
1291.69,-84.32,
1291.705,-82.0,
1291.72,-81.88,
1291.735,-84.63,
1291.75,-85.27,
1291.765,-82.39,
1291.78,-81.58,
1291.795,-82.13,
1291.81,-84.26,
1291.825,-84.15,
1291.84,-87.08,
1291.855,-84.07,
1291.87,-83.0,
1291.885,-83.41,
1291.9,-87.32,
1291.915,-210.0,
1291.93,-84.4,
1291.945,-83.56,
1291.96,-83.89,
1291.975,-90.2,
1291.99,-88.09,
1292.005,-87.32,
1292.02,-85.59,
1292.035,-84.55,
1292.05,-86.76,
1292.065,-89.97,
1292.08,-210.0,
1292.095,-85.76,
1292.11,-83.67,
1292.125,-84.12,
1292.14,-94.49,
1292.155,-97.2,
1292.17,-84.84,
1292.185,-84.83,
1292.2,-85.37,
1292.215,-91.35,
1292.23,-89.75,
1292.245,-210.0,
1292.26,-87.85,
1292.275,-87.17,
1292.29,-90.06,
1292.305,-210.0,
1292.32,-210.0,
1292.335,-86.02,
1292.35,-86.62,
1292.365,-87.07,
1292.38,-210.0,
1292.395,-210.0,
1292.41,-89.51,
1292.425,-87.2,
1292.44,-86.91,
1292.455,-92.81,
1292.47,-210.0,
1292.485,-210.0,
1292.5,-86.07,
1292.515,-84.25,
1292.53,-86.69,
1292.545,-210.0,
1292.56,-90.3,
1292.575,-83.39,
1292.59,-83.25,
1292.605,-85.46,
1292.62,-88.39,
1292.635,-86.54,
1292.65,-88.61,
1292.665,-84.56,
1292.68,-83.99,
1292.695,-85.43,
1292.71,-95.19,
1292.725,-89.38,
1292.74,-83.34,
1292.755,-83.64,
1292.77,-84.46,
1292.785,-88.8,
1292.8,-84.72,
1292.815,-83.36,
1292.83,-83.2,
1292.845,-82.93,
1292.86,-84.03,
1292.875,-83.72,
1292.89,-84.32,
1292.905,-82.17,
1292.92,-81.38,
1292.935,-82.68,
1292.95,-85.48,
1292.965,-84.1,
1292.98,-81.84,
1292.995,-82.89,
1293.01,-84.37,
1293.025,-85.15,
1293.04,-84.07,
1293.055,-84.05,
1293.07,-82.25,
1293.085,-82.36,
1293.1,-83.76,
1293.115,-85.91,
1293.13,-84.19,
1293.145,-82.33,
1293.16,-82.9,
1293.175,-84.76,
1293.19,-88.59,
1293.205,-83.87,
1293.22,-83.03,
1293.235,-83.78,
1293.25,-84.65,
1293.266,-86.24,
1293.281,-85.35,
1293.295,-85.47,
1293.31,-82.0,
1293.325,-82.6,
1293.34,-85.87,
1293.355,-87.91,
1293.37,-84.99,
1293.385,-82.23,
1293.401,-83.19,
1293.416,-85.04,
1293.43,-86.96,
1293.445,-85.2,
1293.46,-85.26,
1293.475,-83.24,
1293.49,-84.38,
1293.505,-86.54,
1293.521,-89.12,
1293.536,-85.91,
1293.551,-83.04,
1293.566,-84.87,
1293.58,-89.64,
1293.595,-210.0,
1293.61,-86.51,
1293.625,-85.87,
1293.641,-86.74,
1293.656,-88.03,
1293.671,-98.66,
1293.686,-210.0,
1293.701,-210.0,
1293.715,-86.79,
1293.73,-93.82,
1293.745,-210.0,
1293.76,-210.0,
1293.776,-210.0,
1293.791,-90.92,
1293.806,-210.0,
1293.821,-210.0,
1293.836,-210.0,
1293.851,-210.0,
1293.865,-210.0,
1293.88,-99.02,
1293.896,-210.0,
1293.911,-210.0,
1293.926,-210.0,
1293.941,-210.0,
1293.956,-210.0,
1293.971,-210.0,
1293.986,-210.0,
1294.001,-210.0,
1294.016,-210.0,
1294.031,-210.0,
1294.046,-210.0,
1294.061,-210.0,
1294.076,-210.0,
1294.091,-210.0,
1294.106,-210.0,
1294.121,-210.0,
1294.136,-210.0,
1294.151,-210.0,
1294.166,-210.0,
1294.181,-210.0,
1294.196,-210.0,
1294.211,-210.0,
1294.226,-210.0,
1294.241,-210.0,
1294.256,-210.0,
1294.271,-210.0,
1294.286,-210.0,
1294.301,-210.0,
1294.316,-210.0,
1294.331,-210.0,
1294.346,-210.0,
1294.361,-93.58,
1294.376,-210.0,
1294.391,-210.0,
1294.406,-210.0,
1294.421,-210.0,
1294.436,-210.0,
1294.451,-210.0,
1294.466,-210.0,
1294.481,-210.0,
1294.496,-210.0,
1294.511,-210.0,
1294.526,-210.0,
1294.541,-210.0,
1294.556,-210.0,
1294.571,-210.0,
1294.586,-210.0,
1294.601,-210.0,
1294.616,-210.0,
1294.631,-210.0,
1294.646,-210.0,
1294.661,-210.0,
1294.676,-210.0,
1294.691,-210.0,
1294.706,-210.0,
1294.721,-210.0,
1294.736,-210.0,
1294.751,-210.0,
1294.766,-93.05,
1294.781,-210.0,
1294.796,-210.0,
1294.811,-210.0,
1294.826,-210.0,
1294.841,-210.0,
1294.856,-210.0,
1294.871,-210.0,
1294.886,-210.0,
1294.901,-210.0,
1294.916,-210.0,
1294.931,-210.0,
1294.946,-210.0,
1294.961,-210.0,
1294.976,-210.0,
1294.991,-210.0,
1295.006,-91.64,
1295.021,-210.0,
1295.036,-210.0,
1295.051,-210.0,
1295.066,-210.0,
1295.081,-210.0,
1295.096,-210.0,
1295.111,-210.0,
1295.126,-210.0,
1295.141,-210.0,
1295.156,-210.0,
1295.171,-210.0,
1295.186,-210.0,
1295.201,-210.0,
1295.216,-210.0,
1295.231,-210.0,
1295.246,-210.0,
1295.261,-210.0,
1295.276,-210.0,
1295.291,-210.0,
1295.306,-210.0,
1295.321,-210.0,
1295.336,-210.0,
1295.351,-210.0,
1295.366,-210.0,
1295.381,-210.0,
1295.396,-210.0,
1295.411,-210.0,
1295.426,-210.0,
1295.441,-210.0,
1295.456,-210.0,
1295.471,-210.0,
1295.486,-210.0,
1295.501,-210.0,
1295.516,-210.0,
1295.531,-210.0,
1295.546,-210.0,
1295.561,-210.0,
1295.576,-90.93,
1295.591,-210.0,
1295.606,-210.0,
1295.621,-210.0,
1295.636,-210.0,
1295.651,-210.0,
1295.666,-210.0,
1295.681,-210.0,
1295.696,-210.0,
1295.711,-210.0,
1295.726,-210.0,
1295.741,-210.0,
1295.756,-210.0,
1295.771,-210.0,
1295.786,-210.0,
1295.801,-210.0,
1295.816,-210.0,
1295.831,-210.0,
1295.846,-210.0,
1295.861,-210.0,
1295.876,-210.0,
1295.891,-210.0,
1295.906,-210.0,
1295.921,-210.0,
1295.936,-210.0,
1295.951,-210.0,
1295.966,-210.0,
1295.981,-210.0,
1295.996,-210.0,
1296.011,-210.0,
1296.026,-210.0,
1296.041,-210.0,
1296.056,-210.0,
1296.071,-210.0,
1296.086,-210.0,
1296.101,-210.0,
1296.116,-210.0,
1296.131,-210.0,
1296.146,-210.0,
1296.161,-210.0,
1296.176,-210.0,
1296.191,-210.0,
1296.206,-109.61,
1296.221,-89.26,
1296.236,-210.0,
1296.251,-210.0,
1296.266,-210.0,
1296.281,-210.0,
1296.296,-94.51,
1296.311,-88.87,
1296.326,-210.0,
1296.341,-210.0,
1296.356,-210.0,
1296.371,-210.0,
1296.386,-91.62,
1296.401,-210.0,
1296.416,-210.0,
1296.431,-210.0,
1296.446,-210.0,
1296.461,-94.1,
1296.476,-95.67,
1296.491,-210.0,
1296.506,-210.0,
1296.521,-210.0,
1296.536,-91.05,
1296.551,-92.97,
1296.566,-210.0,
1296.581,-210.0,
1296.596,-210.0,
1296.611,-96.06,
1296.626,-92.23,
1296.641,-210.0,
1296.656,-210.0,
1296.671,-210.0,
1296.686,-210.0,
1296.701,-89.25,
1296.716,-87.36,
1296.731,-97.0,
1296.746,-210.0,
1296.761,-210.0,
1296.776,-89.2,
1296.791,-87.49,
1296.806,-210.0,
1296.821,-210.0,
1296.836,-210.0,
1296.851,-87.24,
1296.866,-88.64,
1296.881,-96.88,
1296.896,-210.0,
1296.911,-210.0,
1296.926,-210.0,
1296.941,-86.06,
1296.956,-85.54,
1296.971,-94.83,
1296.986,-210.0,
1297.001,-88.36,
1297.016,-84.52,
1297.031,-85.82,
1297.046,-210.0,
1297.061,-210.0,
1297.076,-92.34,
1297.091,-93.34,
1297.106,-94.84,
1297.121,-93.89,
1297.136,-210.0,
1297.151,-210.0,
1297.166,-210.0,
1297.181,-85.51,
1297.196,-87.88,
1297.211,-210.0,
1297.226,-210.0,
1297.241,-104.55,
1297.256,-89.32,
1297.271,-92.0,
1297.286,-99.29,
1297.301,-210.0,
1297.316,-210.0,
1297.331,-91.01,
1297.346,-85.2,
1297.361,-86.5,
1297.376,-210.0,
1297.391,-210.0,
1297.406,-89.16,
1297.421,-84.57,
1297.436,-89.18,
1297.451,-210.0,
1297.466,-210.0,
1297.481,-210.0,
1297.496,-210.0,
1297.511,-210.0,
1297.526,-210.0,
1297.541,-210.0,
1297.556,-210.0,
1297.571,-210.0,
1297.586,-91.76,
1297.601,-210.0,
1297.616,-210.0,
1297.631,-210.0,
1297.646,-210.0,
1297.661,-210.0,
1297.676,-210.0,
1297.691,-210.0,
1297.706,-210.0,
1297.721,-210.0,
1297.736,-210.0,
1297.751,-90.01,
1297.766,-102.17,
1297.781,-210.0,
1297.796,-210.0,
1297.811,-90.49,
1297.826,-87.62,
1297.841,-93.18,
1297.856,-210.0,
1297.871,-210.0,
1297.886,-90.84,
1297.901,-87.42,
1297.916,-86.98,
1297.931,-96.55,
1297.946,-210.0,
1297.961,-210.0,
1297.976,-210.0,
1297.991,-88.38,
1298.006,-210.0,
1298.021,-210.0,
1298.036,-210.0,
1298.051,-93.69,
1298.066,-87.2,
1298.081,-89.99,
1298.096,-89.78,
1298.111,-91.09,
1298.126,-90.49,
1298.141,-85.32,
1298.156,-83.26,
1298.171,-86.44,
1298.186,-210.0,
1298.201,-99.76,
1298.216,-85.05,
1298.231,-83.83,
1298.246,-86.12,
1298.261,-91.39,
1298.276,-88.28,
1298.291,-85.46,
1298.306,-84.55,
1298.321,-84.51,
1298.336,-86.33,
1298.351,-100.18,
1298.366,-109.97,
1298.381,-85.27,
1298.396,-84.66,
1298.411,-93.4,
1298.426,-210.0,
1298.441,-210.0,
1298.456,-85.71,
1298.471,-83.74,
1298.486,-84.1,
1298.501,-86.19,
1298.516,-86.85,
1298.531,-86.44,
1298.546,-83.86,
1298.561,-81.82,
1298.576,-83.62,
1298.591,-86.52,
1298.606,-84.02,
1298.621,-81.03,
1298.636,-81.19,
1298.651,-83.4,
1298.666,-84.23,
1298.681,-83.6,
1298.696,-82.51,
1298.711,-81.89,
1298.726,-81.6,
1298.741,-82.87,
1298.756,-84.53,
1298.771,-83.4,
1298.786,-81.62,
1298.801,-81.08,
1298.816,-83.47,
1298.831,-85.57,
1298.846,-83.3,
1298.861,-82.24,
1298.876,-82.39,
1298.891,-84.25,
1298.906,-85.71,
1298.921,-86.21,
1298.936,-85.75,
1298.951,-82.86,
1298.966,-82.49,
1298.981,-84.48,
1298.996,-85.93,
1299.011,-83.16,
1299.026,-81.41,
1299.041,-82.03,
1299.056,-83.42,
1299.071,-84.73,
1299.086,-83.19,
1299.101,-83.02,
1299.116,-83.12,
1299.131,-83.29,
1299.146,-84.76,
1299.161,-86.32,
1299.176,-84.48,
1299.191,-81.35,
1299.206,-82.78,
1299.221,-86.53,
1299.236,-86.88,
1299.251,-84.19,
1299.266,-82.76,
1299.281,-84.15,
1299.296,-86.54,
1299.311,-88.73,
1299.326,-86.0,
1299.341,-84.12,
1299.356,-83.13,
1299.371,-83.23,
1299.386,-86.96,
1299.401,-89.57,
1299.416,-84.47,
1299.431,-82.15,
1299.446,-84.8,
1299.461,-89.05,
1299.476,-88.2,
1299.491,-86.23,
1299.506,-85.42,
1299.521,-85.53,
1299.536,-85.76,
1299.551,-90.11,
1299.566,-92.67,
1299.581,-87.72,
1299.596,-85.43,
1299.611,-92.02,
1299.626,-210.0,
1299.641,-210.0,
1299.656,-89.7,
1299.671,-87.51,
1299.686,-97.22,
1299.701,-210.0,
1299.716,-210.0,
1299.731,-210.0,
1299.746,-210.0,
1299.761,-88.75,
1299.776,-210.0,
1299.791,-210.0,
1299.806,-210.0,
1299.821,-210.0,
1299.836,-94.5,
1299.851,-210.0,
1299.866,-210.0,
1299.881,-210.0,
1299.896,-95.15,
1299.911,-94.4,
1299.926,-97.51,
1299.941,-210.0,
1299.956,-210.0,
1299.971,-210.0,
1299.986,-88.92,
1300.001,-90.03,
1300.016,-210.0,
1300.031,-210.0,
1300.046,-210.0,
1300.061,-210.0,
1300.076,-210.0,
1300.091,-210.0,
1300.106,-210.0,
1300.121,-210.0,
1300.136,-210.0,
1300.151,-210.0,
1300.166,-210.0,
1300.181,-210.0,
1300.196,-210.0,
1300.211,-210.0,
1300.226,-210.0,
1300.241,-210.0,
1300.256,-210.0,
1300.271,-210.0,
1300.286,-210.0,
1300.301,-210.0,
1300.316,-210.0,
1300.331,-210.0,
1300.346,-210.0,
1300.361,-210.0,
1300.376,-210.0,
1300.391,-210.0,
1300.406,-210.0,
1300.421,-210.0,
1300.436,-210.0,
1300.451,-210.0,
1300.466,-97.17,
1300.481,-210.0,
1300.496,-210.0,
1300.511,-210.0,
1300.526,-210.0,
1300.541,-210.0,
1300.556,-210.0,
1300.571,-210.0,
1300.586,-210.0,
1300.601,-210.0,
1300.616,-210.0,
1300.631,-89.71,
1300.646,-210.0,
1300.661,-210.0,
1300.676,-210.0,
1300.691,-210.0,
1300.706,-89.47,
1300.721,-92.41,
1300.736,-210.0,
1300.751,-210.0,
1300.766,-210.0,
1300.781,-90.85,
1300.796,-86.19,
1300.811,-88.76,
1300.826,-210.0,
1300.841,-210.0,
1300.856,-87.3,
1300.871,-88.13,
1300.886,-210.0,
1300.901,-210.0,
1300.916,-210.0,
1300.931,-210.0,
1300.946,-93.12,
1300.961,-101.0,
1300.976,-210.0,
1300.991,-210.0,
1301.006,-210.0,
1301.021,-87.64,
1301.036,-84.97,
1301.051,-89.66,
1301.066,-210.0,
1301.081,-88.21,
1301.096,-84.53,
1301.111,-85.0,
1301.126,-93.89,
1301.141,-91.48,
1301.156,-93.11,
1301.171,-89.98,
1301.186,-85.68,
1301.201,-86.01,
1301.216,-91.45,
1301.231,-210.0,
1301.246,-91.68,
1301.261,-85.88,
1301.276,-85.99,
1301.292,-96.01,
1301.307,-210.0,
1301.321,-104.28,
1301.336,-90.1,
1301.351,-89.61,
1301.366,-89.62,
1301.381,-93.48,
1301.396,-210.0,
1301.411,-90.24,
1301.427,-84.74,
1301.442,-86.44,
1301.457,-210.0,
1301.471,-210.0,
1301.486,-91.87,
1301.501,-86.01,
1301.516,-87.61,
1301.531,-94.58,
1301.547,-210.0,
1301.562,-98.64,
1301.577,-90.25,
1301.592,-88.19,
1301.606,-87.13,
1301.621,-210.0,
1301.636,-210.0,
1301.651,-90.31,
1301.667,-84.93,
1301.682,-90.62,
1301.697,-210.0,
1301.712,-210.0,
1301.727,-95.16,
1301.742,-90.01,
1301.756,-90.88,
1301.771,-210.0,
1301.786,-210.0,
1301.802,-210.0,
1301.817,-92.58,
1301.832,-86.69,
1301.847,-90.17,
1301.862,-210.0,
1301.877,-210.0,
1301.891,-87.89,
1301.906,-86.34,
1301.922,-210.0,
1301.937,-210.0,
1301.952,-210.0,
1301.967,-210.0,
1301.982,-100.15,
1301.997,-93.1,
1302.012,-210.0,
1302.027,-210.0,
1302.042,-210.0,
1302.057,-210.0,
1302.072,-210.0,
1302.087,-210.0,
1302.102,-210.0,
1302.117,-210.0,
1302.132,-210.0,
1302.147,-210.0,
1302.162,-210.0,
1302.177,-210.0,
1302.192,-210.0,
1302.207,-210.0,
1302.222,-210.0,
1302.237,-210.0,
1302.252,-210.0,
1302.267,-210.0,
1302.282,-210.0,
1302.297,-210.0,
1302.312,-210.0,
1302.327,-210.0,
1302.342,-210.0,
1302.357,-210.0,
1302.372,-210.0,
1302.387,-210.0,
1302.402,-210.0,
1302.417,-210.0,
1302.432,-210.0,
1302.447,-210.0,
1302.462,-92.17,
1302.477,-91.27,
1302.492,-210.0,
1302.507,-210.0,
1302.522,-210.0,
1302.537,-210.0,
1302.552,-210.0,
1302.567,-210.0,
1302.582,-210.0,
1302.597,-210.0,
1302.612,-210.0,
1302.627,-210.0,
1302.642,-210.0,
1302.657,-210.0,
1302.672,-210.0,
1302.687,-210.0,
1302.702,-210.0,
1302.717,-210.0,
1302.732,-210.0,
1302.747,-210.0,
1302.762,-210.0,
1302.777,-210.0,
1302.792,-210.0,
1302.807,-210.0,
1302.822,-210.0,
1302.837,-210.0,
1302.852,-210.0,
1302.867,-210.0,
1302.882,-210.0,
1302.897,-210.0,
1302.912,-210.0,
1302.927,-210.0,
1302.942,-210.0,
1302.957,-210.0,
1302.972,-210.0,
1302.987,-210.0,
1303.002,-210.0,
1303.017,-210.0,
1303.032,-210.0,
1303.047,-210.0,
1303.062,-210.0,
1303.077,-210.0,
1303.092,-210.0,
1303.107,-93.63,
1303.122,-210.0,
1303.137,-210.0,
1303.152,-210.0,
1303.167,-210.0,
1303.182,-91.59,
1303.197,-89.94,
1303.212,-210.0,
1303.227,-210.0,
1303.242,-90.14,
1303.257,-87.38,
1303.272,-86.06,
1303.287,-93.59,
1303.302,-210.0,
1303.317,-91.95,
1303.332,-84.99,
1303.347,-86.69,
1303.362,-91.41,
1303.377,-91.58,
1303.392,-93.71,
1303.407,-90.16,
1303.422,-85.14,
1303.437,-84.94,
1303.452,-88.72,
1303.467,-210.0,
1303.482,-89.1,
1303.497,-86.04,
1303.512,-87.08,
1303.527,-93.01,
1303.542,-90.68,
1303.557,-86.04,
1303.572,-84.08,
1303.587,-84.5,
1303.602,-85.49,
1303.617,-85.65,
1303.632,-85.04,
1303.647,-84.31,
1303.662,-83.23,
1303.677,-84.22,
1303.692,-89.43,
1303.707,-88.1,
1303.722,-83.66,
1303.737,-82.86,
1303.752,-84.88,
1303.767,-85.09,
1303.782,-84.67,
1303.797,-83.61,
1303.812,-83.34,
1303.827,-84.93,
1303.842,-86.25,
1303.857,-90.1,
1303.872,-88.53,
1303.887,-83.25,
1303.902,-82.12,
1303.917,-84.54,
1303.932,-86.09,
1303.947,-83.0,
1303.962,-81.73,
1303.977,-81.77,
1303.992,-82.02,
1304.007,-82.59,
1304.022,-82.92,
1304.037,-82.03,
1304.052,-81.34,
1304.067,-81.17,
1304.082,-82.1,
1304.097,-82.89,
1304.112,-81.85,
1304.127,-81.07,
1304.142,-81.03,
1304.157,-82.71,
1304.172,-83.16,
1304.187,-82.31,
1304.202,-82.19,
1304.217,-82.72,
1304.232,-82.46,
1304.247,-83.95,
1304.262,-86.41,
1304.277,-84.2,
1304.292,-83.35,
1304.307,-83.66,
1304.322,-87.64,
1304.337,-88.96,
1304.352,-86.1,
1304.367,-85.55,
1304.382,-87.42,
1304.397,-90.36,
1304.412,-88.25,
1304.427,-96.78,
1304.442,-90.77,
1304.457,-90.14,
1304.472,-88.46,
1304.487,-210.0,
1304.502,-210.0,
1304.517,-87.95,
1304.532,-88.4,
1304.547,-210.0,
1304.562,-210.0,
1304.577,-210.0,
1304.592,-210.0,
1304.607,-210.0,
1304.622,-210.0,
1304.637,-210.0,
1304.652,-210.0,
1304.667,-210.0,
1304.682,-210.0,
1304.697,-210.0,
1304.712,-210.0,
1304.727,-210.0,
1304.742,-210.0,
1304.757,-91.84,
1304.772,-96.37,
1304.787,-210.0,
1304.802,-210.0,
1304.817,-210.0,
1304.832,-210.0,
1304.847,-210.0,
1304.862,-210.0,
1304.877,-210.0,
1304.892,-210.0,
1304.907,-210.0,
1304.922,-210.0,
1304.937,-210.0,
1304.952,-210.0,
1304.967,-210.0,
1304.982,-210.0,
1304.997,-210.0,
1305.012,-210.0,
1305.027,-210.0,
1305.042,-210.0,
1305.057,-210.0,
1305.072,-210.0,
1305.087,-210.0,
1305.102,-210.0,
1305.117,-210.0,
1305.132,-210.0,
1305.147,-210.0,
1305.162,-210.0,
1305.177,-210.0,
1305.192,-210.0,
1305.207,-210.0,
1305.222,-210.0,
1305.237,-210.0,
1305.252,-210.0,
1305.267,-210.0,
1305.282,-210.0,
1305.297,-210.0,
1305.312,-210.0,
1305.327,-210.0,
1305.342,-210.0,
1305.357,-210.0,
1305.372,-210.0,
1305.387,-210.0,
1305.402,-210.0,
1305.417,-210.0,
1305.432,-210.0,
1305.447,-210.0,
1305.462,-210.0,
1305.477,-210.0,
1305.492,-210.0,
1305.507,-210.0,
1305.522,-210.0,
1305.537,-210.0,
1305.552,-210.0,
1305.567,-210.0,
1305.582,-210.0,
1305.597,-210.0,
1305.612,-210.0,
1305.627,-210.0,
1305.642,-210.0,
1305.657,-210.0,
1305.672,-210.0,
1305.687,-210.0,
1305.702,-210.0,
1305.717,-210.0,
1305.732,-210.0,
1305.747,-210.0,
1305.762,-210.0,
1305.777,-210.0,
1305.792,-210.0,
1305.807,-210.0,
1305.822,-210.0,
1305.837,-210.0,
1305.852,-210.0,
1305.867,-210.0,
1305.882,-210.0,
1305.897,-210.0,
1305.912,-210.0,
1305.927,-210.0,
1305.942,-210.0,
1305.957,-210.0,
1305.972,-210.0,
1305.987,-210.0,
1306.002,-210.0,
1306.017,-210.0,
1306.032,-210.0,
1306.047,-210.0,
1306.062,-210.0,
1306.077,-210.0,
1306.092,-210.0,
1306.107,-210.0,
1306.122,-210.0,
1306.137,-210.0,
1306.152,-210.0,
1306.167,-210.0,
1306.182,-210.0,
1306.197,-210.0,
1306.212,-210.0,
1306.227,-210.0,
1306.242,-210.0,
1306.257,-210.0,
1306.272,-210.0,
1306.287,-210.0,
1306.302,-210.0,
1306.317,-210.0,
1306.332,-210.0,
1306.347,-210.0,
1306.362,-210.0,
1306.377,-210.0,
1306.392,-210.0,
1306.407,-210.0,
1306.422,-210.0,
1306.437,-210.0,
1306.452,-210.0,
1306.467,-210.0,
1306.482,-210.0,
1306.497,-210.0,
1306.512,-210.0,
1306.527,-210.0,
1306.542,-210.0,
1306.557,-210.0,
1306.572,-210.0,
1306.587,-210.0,
1306.602,-210.0,
1306.617,-210.0,
1306.632,-210.0,
1306.647,-210.0,
1306.662,-210.0,
1306.677,-210.0,
1306.692,-210.0,
1306.707,-210.0,
1306.722,-210.0,
1306.737,-210.0,
1306.752,-210.0,
1306.767,-210.0,
1306.782,-210.0,
1306.797,-210.0,
1306.812,-210.0,
1306.827,-210.0,
1306.842,-210.0,
1306.857,-210.0,
1306.872,-210.0,
1306.887,-210.0,
1306.902,-210.0,
1306.917,-210.0,
1306.932,-210.0,
1306.947,-210.0,
1306.962,-210.0,
1306.977,-210.0,
1306.992,-210.0,
1307.007,-210.0,
1307.022,-210.0,
1307.037,-210.0,
1307.052,-210.0,
1307.067,-210.0,
1307.082,-210.0,
1307.097,-210.0,
1307.112,-210.0,
1307.127,-210.0,
1307.142,-210.0,
1307.157,-210.0,
1307.172,-210.0,
1307.187,-210.0,
1307.202,-210.0,
1307.217,-210.0,
1307.232,-210.0,
1307.247,-210.0,
1307.262,-210.0,
1307.277,-210.0,
1307.292,-210.0,
1307.307,-210.0,
1307.322,-210.0,
1307.337,-210.0,
1307.352,-210.0,
1307.367,-96.32,
1307.382,-90.42,
1307.397,-210.0,
1307.412,-210.0,
1307.427,-210.0,
1307.442,-210.0,
1307.457,-95.48,
1307.472,-210.0,
1307.487,-210.0,
1307.502,-210.0,
1307.517,-210.0,
1307.532,-93.67,
1307.547,-87.57,
1307.562,-93.27,
1307.577,-210.0,
1307.592,-210.0,
1307.607,-89.41,
1307.622,-88.14,
1307.637,-210.0,
1307.652,-210.0,
1307.667,-210.0,
1307.682,-91.65,
1307.697,-88.18,
1307.712,-88.23,
1307.727,-91.47,
1307.742,-210.0,
1307.757,-210.0,
1307.772,-91.99,
1307.787,-86.98,
1307.802,-210.0,
1307.817,-97.13,
1307.832,-87.72,
1307.847,-85.1,
1307.862,-89.7,
1307.877,-88.66,
1307.892,-88.97,
1307.907,-90.87,
1307.922,-89.31,
1307.937,-88.92,
1307.952,-89.68,
1307.967,-210.0,
1307.982,-89.8,
1307.997,-86.96,
1308.012,-87.08,
1308.027,-88.96,
1308.042,-110.72,
1308.057,-90.63,
1308.072,-87.23,
1308.087,-86.59,
1308.102,-100.78,
1308.117,-98.5,
1308.132,-210.0,
1308.147,-210.0,
1308.162,-91.68,
1308.177,-88.02,
1308.192,-92.22,
1308.207,-210.0,
1308.222,-91.43,
1308.237,-86.88,
1308.252,-86.25,
1308.267,-111.11,
1308.282,-210.0,
1308.297,-112.81,
1308.312,-87.45,
1308.327,-87.95,
1308.342,-88.5,
1308.357,-89.46,
1308.372,-210.0,
1308.387,-88.2,
1308.402,-85.31,
1308.417,-85.86,
1308.432,-102.17,
1308.447,-86.75,
1308.462,-85.16,
1308.477,-84.64,
1308.492,-85.39,
1308.507,-86.4,
1308.522,-85.89,
1308.537,-88.87,
1308.552,-85.45,
1308.567,-87.95,
1308.582,-87.16,
1308.597,-89.36,
1308.612,-87.26,
1308.627,-85.83,
1308.642,-86.91,
1308.657,-89.35,
1308.672,-210.0,
1308.687,-87.09,
1308.702,-89.68,
1308.717,-89.17,
1308.732,-210.0,
1308.747,-91.31,
1308.762,-210.0,
1308.777,-89.53,
1308.792,-86.29,
1308.807,-89.33,
1308.822,-210.0,
1308.837,-210.0,
1308.852,-210.0,
1308.867,-90.18,
1308.882,-92.92,
1308.897,-210.0,
1308.912,-210.0,
1308.927,-90.77,
1308.942,-88.9,
1308.957,-86.36,
1308.972,-87.03,
1308.987,-93.48,
1309.002,-210.0,
1309.017,-86.8,
1309.032,-85.73,
1309.047,-88.44,
1309.062,-210.0,
1309.077,-89.4,
1309.092,-87.67,
1309.107,-87.39,
1309.122,-86.37,
1309.137,-89.46,
1309.152,-88.0,
1309.167,-88.7,
1309.182,-86.73,
1309.198,-87.93,
1309.212,-88.99,
1309.227,-210.0,
1309.242,-95.1,
1309.257,-86.6,
1309.272,-91.41,
1309.287,-210.0,
1309.302,-210.0,
1309.318,-210.0,
1309.333,-210.0,
1309.347,-210.0,
1309.362,-210.0,
1309.377,-210.0,
1309.392,-210.0,
1309.407,-210.0,
1309.422,-210.0,
1309.438,-210.0,
1309.453,-210.0,
1309.468,-210.0,
1309.483,-210.0,
1309.497,-210.0,
1309.512,-210.0,
1309.527,-210.0,
1309.542,-210.0,
1309.557,-210.0,
1309.573,-210.0,
1309.588,-210.0,
1309.603,-210.0,
1309.618,-210.0,
1309.632,-210.0,
1309.647,-210.0,
1309.662,-210.0,
1309.677,-210.0,
1309.693,-210.0,
1309.708,-210.0,
1309.723,-210.0,
1309.738,-210.0,
1309.753,-210.0,
1309.768,-210.0,
1309.782,-210.0,
1309.797,-210.0,
1309.813,-210.0,
1309.828,-210.0,
1309.843,-210.0,
1309.858,-210.0,
1309.873,-210.0,
1309.888,-210.0,
1309.903,-210.0,
1309.917,-210.0,
1309.932,-210.0,
1309.948,-210.0,
1309.963,-210.0,
1309.978,-210.0,
1309.993,-210.0,
1310.008,-210.0,
1310.023,-210.0,
1310.038,-210.0,
1310.053,-101.65,
1310.068,-210.0,
1310.083,-210.0,
1310.098,-210.0,
1310.113,-210.0,
1310.128,-100.02,
1310.143,-210.0,
1310.158,-91.89,
1310.173,-210.0,
1310.188,-210.0,
1310.203,-94.66,
1310.218,-86.35,
1310.233,-210.0,
1310.248,-210.0,
1310.263,-210.0,
1310.278,-87.68,
1310.293,-84.46,
1310.308,-84.77,
1310.323,-86.59,
1310.338,-88.26,
1310.353,-84.91,
1310.368,-85.27,
1310.383,-83.27,
1310.398,-85.06,
1310.413,-88.5,
1310.428,-90.95,
1310.443,-85.19,
1310.458,-83.3,
1310.473,-84.89,
1310.488,-87.2,
1310.503,-92.76,
1310.518,-84.93,
1310.533,-85.24,
1310.548,-84.3,
1310.563,-86.41,
1310.578,-87.1,
1310.593,-88.52,
1310.608,-86.59,
1310.623,-83.7,
1310.638,-86.93,
1310.653,-88.37,
1310.668,-89.68,
1310.683,-83.19,
1310.698,-84.5,
1310.713,-84.43,
1310.728,-88.55,
1310.743,-86.86,
1310.758,-86.84,
1310.773,-85.53,
1310.788,-84.17,
1310.803,-87.32,
1310.818,-85.69,
1310.833,-86.73,
1310.848,-82.83,
1310.863,-84.84,
1310.878,-89.37,
1310.893,-90.71,
1310.908,-84.48,
1310.923,-83.06,
1310.938,-84.07,
1310.953,-84.75,
1310.968,-88.11,
1310.983,-84.92,
1310.998,-86.1,
1311.013,-84.33,
1311.028,-87.74,
1311.043,-210.0,
1311.058,-210.0,
1311.073,-87.13,
1311.088,-84.65,
1311.103,-89.9,
1311.118,-210.0,
1311.133,-210.0,
1311.148,-95.14,
1311.163,-210.0,
1311.178,-210.0,
1311.193,-210.0,
1311.208,-210.0,
1311.223,-210.0,
1311.238,-210.0,
1311.253,-90.13,
1311.268,-210.0,
1311.283,-210.0,
1311.298,-210.0,
1311.313,-210.0,
1311.328,-210.0,
1311.343,-210.0,
1311.358,-210.0,
1311.373,-210.0,
1311.388,-210.0,
1311.403,-210.0,
1311.418,-210.0,
1311.433,-210.0,
1311.448,-210.0,
1311.463,-210.0,
1311.478,-210.0,
1311.493,-210.0,
1311.508,-210.0,
1311.523,-210.0,
1311.538,-210.0,
1311.553,-210.0,
1311.568,-210.0,
1311.583,-210.0,
1311.598,-210.0,
1311.613,-210.0,
1311.628,-210.0,
1311.643,-210.0,
1311.658,-210.0,
1311.673,-210.0,
1311.688,-210.0,
1311.703,-210.0,
1311.718,-210.0,
1311.733,-210.0,
1311.748,-210.0,
1311.763,-210.0,
1311.778,-210.0,
1311.793,-210.0,
1311.808,-210.0,
1311.823,-210.0,
1311.838,-210.0,
1311.853,-210.0,
1311.868,-210.0,
1311.883,-210.0,
1311.898,-210.0,
1311.913,-210.0,
1311.928,-210.0,
1311.943,-210.0,
1311.958,-210.0,
1311.973,-210.0,
1311.988,-210.0,
1312.003,-210.0,
1312.018,-210.0,
1312.033,-210.0,
1312.048,-210.0,
1312.063,-210.0,
1312.078,-210.0,
1312.093,-210.0,
1312.108,-210.0,
1312.123,-210.0,
1312.138,-210.0,
1312.153,-210.0,
1312.168,-210.0,
1312.183,-210.0,
1312.198,-210.0,
1312.213,-210.0,
1312.228,-210.0,
1312.243,-210.0,
1312.258,-210.0,
1312.273,-89.85,
1312.288,-97.47,
1312.303,-210.0,
1312.318,-210.0,
1312.333,-97.39,
1312.348,-88.94,
1312.363,-210.0,
1312.378,-89.5,
1312.393,-210.0,
1312.408,-90.14,
1312.423,-88.63,
1312.438,-86.27,
1312.453,-92.59,
1312.468,-210.0,
1312.483,-210.0,
1312.498,-89.83,
1312.513,-87.2,
1312.528,-210.0,
1312.543,-210.0,
1312.558,-210.0,
1312.573,-99.16,
1312.588,-100.6,
1312.603,-88.96,
1312.618,-210.0,
1312.633,-210.0,
1312.648,-210.0,
1312.663,-100.08,
1312.678,-95.65,
1312.693,-210.0,
1312.708,-210.0,
1312.723,-210.0,
1312.738,-210.0,
1312.753,-94.73,
1312.768,-210.0,
1312.783,-210.0,
1312.798,-210.0,
1312.813,-210.0,
1312.828,-210.0,
1312.843,-210.0,
1312.858,-210.0,
1312.873,-210.0,
1312.888,-210.0,
1312.903,-95.61,
1312.918,-210.0,
1312.933,-210.0,
1312.948,-210.0,
1312.963,-210.0,
1312.978,-210.0,
1312.993,-210.0,
1313.008,-210.0,
1313.023,-210.0,
1313.038,-210.0,
1313.053,-210.0,
1313.068,-210.0,
1313.083,-210.0,
1313.098,-210.0,
1313.113,-210.0,
1313.128,-210.0,
1313.143,-210.0,
1313.158,-210.0,
1313.173,-210.0,
1313.188,-210.0,
1313.203,-210.0,
1313.218,-210.0,
1313.233,-210.0,
1313.248,-210.0,
1313.263,-210.0,
1313.278,-210.0,
1313.293,-210.0,
1313.308,-210.0,
1313.323,-210.0,
1313.338,-210.0,
1313.353,-210.0,
1313.368,-210.0,
1313.383,-210.0,
1313.398,-210.0,
1313.413,-210.0,
1313.428,-210.0,
1313.443,-210.0,
1313.458,-210.0,
1313.473,-210.0,
1313.488,-210.0,
1313.503,-210.0,
1313.518,-210.0,
1313.533,-210.0,
1313.548,-210.0,
1313.563,-210.0,
1313.578,-210.0,
1313.593,-210.0,
1313.608,-210.0,
1313.623,-210.0,
1313.638,-210.0,
1313.653,-210.0,
1313.668,-210.0,
1313.683,-87.82,
1313.698,-87.96,
1313.713,-210.0,
1313.728,-210.0,
1313.743,-87.81,
1313.758,-91.09,
1313.773,-87.98,
1313.788,-210.0,
1313.803,-90.13,
1313.818,-210.0,
1313.833,-86.22,
1313.848,-85.93,
1313.863,-87.36,
1313.878,-87.02,
1313.893,-94.7,
1313.908,-86.75,
1313.923,-86.44,
1313.938,-85.88,
1313.953,-210.0,
1313.968,-87.06,
1313.983,-88.56,
1313.998,-87.3,
1314.013,-89.75,
1314.028,-88.46,
1314.043,-90.53,
1314.058,-210.0,
1314.073,-87.9,
1314.088,-101.05,
1314.103,-93.57,
1314.118,-210.0,
1314.133,-210.0,
1314.148,-210.0,
1314.163,-210.0,
1314.178,-210.0,
1314.193,-210.0,
1314.208,-210.0,
1314.223,-210.0,
1314.238,-210.0,
1314.253,-210.0,
1314.268,-210.0,
1314.283,-210.0,
1314.298,-98.77,
1314.313,-90.4,
1314.328,-92.78,
1314.343,-210.0,
1314.358,-210.0,
1314.373,-89.31,
1314.388,-90.58,
1314.403,-87.94,
1314.418,-210.0,
1314.433,-210.0,
1314.448,-210.0,
1314.463,-210.0,
1314.478,-89.85,
1314.493,-210.0,
1314.508,-210.0,
1314.523,-210.0,
1314.538,-210.0,
1314.553,-210.0,
1314.568,-210.0,
1314.583,-210.0,
1314.598,-210.0,
1314.613,-210.0,
1314.628,-210.0,
1314.643,-94.32,
1314.658,-210.0,
1314.673,-210.0,
1314.688,-210.0,
1314.703,-210.0,
1314.718,-210.0,
1314.733,-210.0,
1314.748,-210.0,
1314.763,-210.0,
1314.778,-210.0,
1314.793,-210.0,
1314.808,-210.0,
1314.823,-210.0,
1314.838,-210.0,
1314.853,-210.0,
1314.868,-210.0,
1314.883,-210.0,
1314.898,-210.0,
1314.913,-210.0,
1314.928,-210.0,
1314.943,-210.0,
1314.958,-210.0,
1314.973,-210.0,
1314.988,-210.0,
1315.003,-210.0,
1315.018,-210.0,
1315.033,-210.0,
1315.048,-210.0,
1315.063,-210.0,
1315.078,-210.0,
1315.093,-210.0,
1315.108,-96.28,
1315.123,-210.0,
1315.138,-210.0,
1315.153,-210.0,
1315.168,-99.07,
1315.183,-210.0,
1315.198,-95.34,
1315.213,-210.0,
1315.228,-210.0,
1315.243,-210.0,
1315.258,-210.0,
1315.273,-90.72,
1315.288,-210.0,
1315.303,-210.0,
1315.318,-210.0,
1315.333,-210.0,
1315.348,-210.0,
1315.363,-210.0,
1315.378,-210.0,
1315.393,-210.0,
1315.408,-210.0,
1315.423,-210.0,
1315.438,-210.0,
1315.453,-210.0,
1315.468,-210.0,
1315.483,-210.0,
1315.498,-210.0,
1315.513,-210.0,
1315.528,-210.0,
1315.543,-210.0,
1315.558,-210.0,
1315.573,-210.0,
1315.588,-210.0,
1315.603,-210.0,
1315.618,-210.0,
1315.633,-210.0,
1315.648,-210.0,
1315.663,-210.0,
1315.678,-210.0,
1315.693,-210.0,
1315.708,-210.0,
1315.723,-210.0,
1315.738,-210.0,
1315.753,-210.0,
1315.768,-210.0,
1315.783,-210.0,
1315.798,-210.0,
1315.813,-210.0,
1315.828,-210.0,
1315.843,-210.0,
1315.858,-210.0,
1315.873,-210.0,
1315.888,-210.0,
1315.903,-210.0,
1315.918,-210.0,
1315.933,-210.0,
1315.948,-210.0,
1315.963,-210.0,
1315.978,-210.0,
1315.993,-210.0,
1316.008,-210.0,
1316.023,-210.0,
1316.038,-210.0,
1316.053,-210.0,
1316.068,-210.0,
1316.083,-210.0,
1316.098,-210.0,
1316.113,-210.0,
1316.128,-210.0,
1316.143,-210.0,
1316.158,-210.0,
1316.173,-210.0,
1316.188,-210.0,
1316.203,-210.0,
1316.218,-210.0,
1316.233,-210.0,
1316.248,-210.0,
1316.263,-210.0,
1316.278,-210.0,
1316.293,-210.0,
1316.308,-210.0,
1316.323,-210.0,
1316.338,-210.0,
1316.353,-210.0,
1316.368,-210.0,
1316.383,-210.0,
1316.398,-210.0,
1316.413,-210.0,
1316.428,-210.0,
1316.443,-210.0,
1316.458,-210.0,
1316.473,-210.0,
1316.488,-210.0,
1316.503,-210.0,
1316.518,-210.0,
1316.533,-210.0,
1316.548,-210.0,
1316.563,-210.0,
1316.578,-210.0,
1316.593,-210.0,
1316.608,-210.0,
1316.623,-210.0,
1316.638,-210.0,
1316.653,-210.0,
1316.668,-210.0,
1316.683,-210.0,
1316.698,-210.0,
1316.713,-210.0,
1316.728,-210.0,
1316.743,-210.0,
1316.758,-210.0,
1316.773,-210.0,
1316.788,-210.0,
1316.803,-210.0,
1316.818,-210.0,
1316.833,-210.0,
1316.848,-210.0,
1316.863,-210.0,
1316.878,-210.0,
1316.893,-210.0,
1316.908,-210.0,
1316.923,-210.0,
1316.938,-210.0,
1316.953,-210.0,
1316.968,-210.0,
1316.983,-210.0,
1316.998,-210.0,
1317.013,-210.0,
1317.028,-210.0,
1317.043,-210.0,
1317.058,-210.0,
1317.073,-210.0,
1317.088,-90.05,
1317.103,-210.0,
1317.118,-210.0,
1317.133,-210.0,
1317.148,-210.0,
1317.163,-210.0,
1317.178,-210.0,
1317.193,-210.0,
1317.208,-210.0,
1317.224,-210.0,
1317.238,-210.0,
1317.253,-88.77,
1317.268,-210.0,
1317.283,-93.29,
1317.298,-210.0,
1317.313,-85.71,
1317.328,-88.6,
1317.344,-86.58,
1317.359,-86.57,
1317.373,-85.81,
1317.388,-83.74,
1317.403,-84.71,
1317.418,-83.71,
1317.433,-87.39,
1317.448,-83.27,
1317.464,-84.26,
1317.479,-82.62,
1317.494,-84.35,
1317.509,-83.96,
1317.523,-84.64,
1317.538,-83.7,
1317.553,-83.24,
1317.568,-86.11,
1317.583,-84.42,
1317.599,-85.51,
1317.614,-82.72,
1317.629,-83.62,
1317.644,-82.28,
1317.658,-84.31,
1317.673,-83.42,
1317.688,-82.28,
1317.703,-81.59,
1317.719,-81.78,
1317.734,-83.46,
1317.749,-82.91,
1317.764,-83.1,
1317.779,-81.19,
1317.794,-82.86,
1317.808,-82.86,
1317.823,-83.11,
1317.839,-83.08,
1317.854,-82.61,
1317.869,-82.07,
1317.884,-81.93,
1317.899,-85.02,
1317.914,-82.87,
1317.929,-82.96,
1317.944,-81.98,
1317.958,-85.02,
1317.974,-83.67,
1317.989,-84.8,
1318.004,-82.29,
1318.019,-82.67,
1318.034,-83.57,
1318.049,-84.87,
1318.064,-88.26,
1318.079,-84.09,
1318.094,-85.49,
1318.109,-82.94,
1318.124,-87.91,
1318.139,-85.33,
1318.154,-83.82,
1318.169,-82.16,
1318.184,-82.84,
1318.199,-83.67,
1318.214,-84.69,
1318.229,-85.91,
1318.244,-83.42,
1318.259,-84.32,
1318.274,-83.09,
1318.289,-86.47,
1318.304,-84.69,
1318.319,-84.45,
1318.334,-82.93,
1318.349,-84.99,
1318.364,-91.36,
1318.379,-87.33,
1318.394,-87.47,
1318.409,-85.55,
1318.424,-94.98,
1318.439,-88.27,
1318.454,-210.0,
1318.469,-90.14,
1318.484,-87.91,
1318.499,-87.84,
1318.514,-210.0,
1318.529,-210.0,
1318.544,-92.38,
1318.559,-90.5,
1318.574,-86.91,
1318.589,-210.0,
1318.604,-92.75,
1318.619,-210.0,
1318.634,-92.22,
1318.649,-210.0,
1318.664,-90.94,
1318.679,-210.0,
1318.694,-210.0,
1318.709,-210.0,
1318.724,-210.0,
1318.739,-109.89,
1318.754,-210.0,
1318.769,-210.0,
1318.784,-210.0,
1318.799,-91.69,
1318.814,-96.57,
1318.829,-210.0,
1318.844,-210.0,
1318.859,-100.39,
1318.874,-88.06,
1318.889,-95.62,
1318.904,-87.85,
1318.919,-210.0,
1318.934,-86.78,
1318.949,-85.72,
1318.964,-83.45,
1318.979,-87.02,
1318.994,-84.84,
1319.009,-85.05,
1319.024,-85.65,
1319.039,-83.58,
1319.054,-84.86,
1319.069,-83.97,
1319.084,-88.26,
1319.099,-83.65,
1319.114,-84.27,
1319.129,-83.11,
1319.144,-85.82,
1319.159,-86.66,
1319.174,-86.31,
1319.189,-85.6,
1319.204,-85.73,
1319.219,-87.75,
1319.234,-85.24,
1319.249,-89.93,
1319.264,-86.27,
1319.279,-87.33,
1319.294,-85.33,
1319.309,-88.71,
1319.324,-89.05,
1319.339,-85.83,
1319.354,-86.04,
1319.369,-84.61,
1319.384,-86.85,
1319.399,-85.07,
1319.414,-86.6,
1319.429,-83.47,
1319.444,-84.57,
1319.459,-83.67,
1319.474,-86.51,
1319.489,-86.87,
1319.504,-85.53,
1319.519,-84.69,
1319.534,-84.39,
1319.549,-88.3,
1319.564,-84.63,
1319.579,-85.92,
1319.594,-84.36,
1319.609,-87.55,
1319.624,-87.27,
1319.639,-210.0,
1319.654,-88.82,
1319.669,-87.15,
1319.684,-86.62,
1319.699,-88.5,
1319.714,-210.0,
1319.729,-86.94,
1319.744,-88.69,
1319.759,-84.84,
1319.774,-90.77,
1319.789,-87.76,
1319.804,-90.44,
1319.819,-87.47,
1319.834,-87.18,
1319.849,-90.18,
1319.864,-210.0,
1319.879,-210.0,
1319.894,-92.58,
1319.909,-210.0,
1319.924,-210.0,
1319.939,-210.0,
1319.954,-210.0,
1319.969,-210.0,
1319.984,-210.0,
1319.999,-210.0,
1320.014,-210.0,
1320.029,-210.0,
1320.044,-210.0,
1320.059,-210.0,
1320.074,-210.0,
1320.089,-210.0,
1320.104,-210.0,
1320.119,-210.0,
1320.134,-210.0,
1320.149,-210.0,
1320.164,-210.0,
1320.179,-210.0,
1320.194,-210.0,
1320.209,-210.0,
1320.224,-99.72,
1320.239,-210.0,
1320.254,-210.0,
1320.269,-210.0,
1320.284,-100.19,
1320.299,-210.0,
1320.314,-103.18,
1320.329,-210.0,
1320.344,-210.0,
1320.359,-88.91,
1320.374,-90.67,
1320.389,-90.46,
1320.404,-210.0,
1320.419,-93.51,
1320.434,-210.0,
1320.449,-93.21,
1320.464,-210.0,
1320.479,-210.0,
1320.494,-210.0,
1320.509,-210.0,
1320.524,-210.0,
1320.539,-210.0,
1320.554,-210.0,
1320.569,-210.0,
1320.584,-210.0,
1320.599,-210.0,
1320.614,-210.0,
1320.629,-210.0,
1320.644,-90.0,
1320.659,-95.88,
1320.674,-93.96,
1320.689,-94.0,
1320.704,-210.0,
1320.719,-210.0,
1320.734,-210.0,
1320.749,-87.37,
1320.764,-94.16,
1320.779,-88.48,
1320.794,-210.0,
1320.809,-95.38,
1320.824,-210.0,
1320.839,-210.0,
1320.854,-210.0,
1320.869,-210.0,
1320.884,-90.78,
1320.899,-210.0,
1320.914,-87.96,
1320.929,-210.0,
1320.944,-90.98,
1320.959,-210.0,
1320.974,-87.5,
1320.989,-89.18,
1321.004,-87.79,
1321.019,-87.96,
1321.034,-90.68,
1321.049,-87.96,
1321.064,-96.72,
1321.079,-87.14,
1321.094,-89.93,
1321.109,-85.55,
1321.124,-89.59,
1321.139,-87.63,
1321.154,-87.73,
1321.169,-87.53,
1321.184,-87.43,
1321.199,-88.32,
1321.214,-86.28,
1321.229,-92.44,
1321.244,-85.64,
1321.259,-89.44,
1321.274,-85.98,
1321.289,-95.6,
1321.304,-88.95,
1321.319,-210.0,
1321.334,-91.45,
1321.349,-105.99,
1321.364,-210.0,
1321.379,-210.0,
1321.394,-210.0,
1321.409,-210.0,
1321.424,-210.0,
1321.439,-98.9,
1321.454,-210.0,
1321.469,-210.0,
1321.484,-94.1,
1321.499,-95.56,
1321.514,-93.85,
1321.529,-94.4,
1321.544,-87.56,
1321.559,-90.81,
1321.574,-85.68,
1321.589,-89.25,
1321.604,-86.52,
1321.619,-90.63,
1321.634,-86.31,
1321.649,-90.33,
1321.664,-85.67,
1321.679,-86.83,
1321.694,-87.43,
1321.709,-86.72,
1321.724,-86.88,
1321.739,-84.7,
1321.754,-87.83,
1321.769,-85.07,
1321.784,-88.53,
1321.799,-85.63,
1321.814,-87.0,
1321.829,-86.39,
1321.844,-85.93,
1321.859,-85.71,
1321.874,-84.07,
1321.889,-85.36,
1321.904,-83.94,
1321.919,-85.87,
1321.934,-82.71,
1321.949,-83.97,
1321.964,-83.01,
1321.979,-85.0,
1321.994,-83.97,
1322.009,-84.68,
1322.024,-83.39,
1322.039,-82.69,
1322.054,-84.63,
1322.069,-83.15,
1322.084,-84.52,
1322.099,-82.89,
1322.114,-86.61,
1322.129,-85.34,
1322.144,-86.47,
1322.159,-85.06,
1322.174,-85.86,
1322.189,-86.41,
1322.204,-86.5,
1322.219,-87.19,
1322.234,-84.53,
1322.249,-86.68,
1322.264,-84.16,
1322.279,-86.87,
1322.294,-84.34,
1322.309,-85.15,
1322.324,-82.94,
1322.339,-84.3,
1322.354,-86.49,
1322.369,-85.9,
1322.384,-86.29,
1322.399,-84.31,
1322.414,-85.12,
1322.429,-84.04,
1322.444,-87.35,
1322.459,-84.0,
1322.474,-84.13,
1322.489,-82.89,
1322.504,-83.3,
1322.519,-84.47,
1322.534,-84.59,
1322.549,-84.26,
1322.564,-82.6,
1322.579,-85.07,
1322.594,-83.73,
1322.609,-85.86,
1322.624,-83.55,
1322.639,-84.49,
1322.654,-83.53,
1322.669,-86.23,
1322.684,-87.85,
1322.699,-86.0,
1322.714,-84.57,
1322.729,-83.5,
1322.744,-86.14,
1322.759,-85.08,
1322.774,-86.95,
1322.789,-83.69,
1322.804,-86.06,
1322.819,-86.23,
1322.834,-87.82,
1322.849,-86.51,
1322.864,-85.16,
1322.879,-85.01,
1322.894,-85.01,
1322.909,-88.52,
1322.924,-85.73,
1322.939,-87.56,
1322.954,-84.78,
1322.969,-89.3,
1322.984,-86.84,
1322.999,-90.61,
1323.014,-86.41,
1323.029,-86.92,
1323.044,-96.68,
1323.059,-90.85,
1323.074,-210.0,
1323.089,-95.25,
1323.104,-210.0,
1323.119,-86.57,
1323.134,-99.5,
1323.149,-92.15,
1323.164,-210.0,
1323.179,-91.79,
1323.194,-210.0,
1323.209,-210.0,
1323.224,-210.0,
1323.239,-210.0,
1323.254,-91.86,
1323.269,-210.0,
1323.284,-210.0,
1323.299,-210.0,
1323.314,-210.0,
1323.329,-210.0,
1323.344,-210.0,
1323.359,-210.0,
1323.374,-210.0,
1323.389,-210.0,
1323.404,-210.0,
1323.419,-210.0,
1323.434,-210.0,
1323.449,-210.0,
1323.464,-210.0,
1323.479,-210.0,
1323.494,-210.0,
1323.509,-210.0,
1323.524,-210.0,
1323.539,-210.0,
1323.554,-210.0,
1323.569,-210.0,
1323.584,-210.0,
1323.599,-210.0,
1323.614,-210.0,
1323.629,-210.0,
1323.644,-210.0,
1323.659,-210.0,
1323.674,-210.0,
1323.689,-210.0,
1323.704,-210.0,
1323.719,-210.0,
1323.734,-210.0,
1323.749,-210.0,
1323.764,-210.0,
1323.779,-210.0,
1323.794,-210.0,
1323.809,-210.0,
1323.824,-210.0,
1323.839,-210.0,
1323.854,-210.0,
1323.869,-210.0,
1323.884,-210.0,
1323.899,-210.0,
1323.914,-210.0,
1323.929,-210.0,
1323.944,-210.0,
1323.959,-210.0,
1323.974,-210.0,
1323.989,-210.0,
1324.004,-210.0,
1324.019,-210.0,
1324.034,-210.0,
1324.049,-210.0,
1324.064,-210.0,
1324.079,-210.0,
1324.094,-210.0,
1324.109,-92.03,
1324.124,-210.0,
1324.139,-88.03,
1324.154,-100.33,
1324.169,-88.4,
1324.184,-89.35,
1324.199,-84.66,
1324.214,-85.86,
1324.229,-85.21,
1324.244,-85.8,
1324.259,-88.56,
1324.274,-86.41,
1324.289,-88.18,
1324.304,-86.07,
1324.319,-87.66,
1324.334,-84.56,
1324.349,-87.04,
1324.364,-84.31,
1324.379,-85.37,
1324.394,-87.14,
1324.409,-89.11,
1324.424,-88.68,
1324.439,-85.99,
1324.454,-87.18,
1324.469,-84.34,
1324.484,-86.22,
1324.499,-84.46,
1324.514,-85.54,
1324.529,-84.19,
1324.544,-86.21,
1324.559,-85.67,
1324.574,-86.62,
1324.589,-85.78,
1324.604,-84.31,
1324.619,-86.83,
1324.634,-85.62,
1324.649,-87.02,
1324.664,-83.2,
1324.679,-84.94,
1324.694,-83.52,
1324.709,-86.16,
1324.724,-84.99,
1324.739,-84.52,
1324.754,-83.62,
1324.769,-83.39,
1324.784,-85.87,
1324.799,-84.25,
1324.814,-86.13,
1324.829,-83.65,
1324.844,-85.31,
1324.859,-85.76,
1324.874,-92.0,
1324.889,-86.56,
1324.904,-86.28,
1324.919,-86.51,
1324.934,-86.53,
1324.949,-96.78,
1324.964,-87.52,
1324.979,-88.65,
1324.994,-85.83,
1325.009,-210.0,
1325.024,-92.05,
1325.039,-210.0,
1325.054,-91.09,
1325.069,-210.0,
1325.084,-94.99,
1325.099,-210.0,
1325.114,-210.0,
1325.129,-210.0,
1325.144,-210.0,
1325.159,-210.0,
1325.174,-210.0,
1325.189,-210.0,
1325.204,-210.0,
1325.219,-210.0,
1325.234,-210.0,
1325.25,-210.0,
1325.264,-210.0,
1325.279,-210.0,
1325.294,-210.0,
1325.309,-210.0,
1325.324,-210.0,
1325.339,-210.0,
1325.354,-210.0,
1325.37,-210.0,
1325.385,-210.0,
1325.4,-210.0,
1325.414,-210.0,
1325.429,-210.0,
1325.444,-210.0,
1325.459,-210.0,
1325.474,-210.0,
1325.49,-210.0,
1325.505,-210.0,
1325.52,-210.0,
1325.535,-210.0,
1325.549,-210.0,
1325.564,-210.0,
1325.579,-210.0,
1325.594,-210.0,
1325.609,-210.0,
1325.625,-210.0,
1325.64,-210.0,
1325.655,-210.0,
1325.67,-210.0,
1325.685,-210.0,
1325.699,-210.0,
1325.714,-210.0,
1325.729,-210.0,
1325.745,-210.0,
1325.76,-210.0,
1325.775,-210.0,
1325.79,-210.0,
1325.805,-210.0,
1325.82,-210.0,
1325.834,-210.0,
1325.849,-210.0,
1325.865,-210.0,
1325.88,-210.0,
1325.895,-210.0,
1325.91,-210.0,
1325.925,-210.0,
1325.94,-210.0,
1325.955,-210.0,
1325.97,-210.0,
1325.984,-210.0,
1326.0,-210.0,
1326.015,-210.0,
1326.03,-210.0,
1326.045,-210.0,
1326.06,-210.0,
1326.075,-210.0,
1326.09,-210.0,
1326.105,-210.0,
1326.12,-210.0,
1326.135,-210.0,
1326.15,-210.0,
1326.165,-210.0,
1326.18,-210.0,
1326.195,-210.0,
1326.21,-210.0,
1326.225,-210.0,
1326.24,-210.0,
1326.255,-210.0,
1326.27,-210.0,
1326.285,-210.0,
1326.3,-210.0,
1326.315,-210.0,
1326.33,-210.0,
1326.345,-210.0,
1326.36,-210.0,
1326.375,-210.0,
1326.39,-210.0,
1326.405,-210.0,
1326.42,-210.0,
1326.435,-210.0,
1326.45,-210.0,
1326.465,-210.0,
1326.48,-210.0,
1326.495,-210.0,
1326.51,-210.0,
1326.525,-210.0,
1326.54,-210.0,
1326.555,-210.0,
1326.57,-210.0,
1326.585,-210.0,
1326.6,-210.0,
1326.615,-210.0,
1326.63,-210.0,
1326.645,-210.0,
1326.66,-210.0,
1326.675,-210.0,
1326.69,-210.0,
1326.705,-210.0,
1326.72,-210.0,
1326.735,-210.0,
1326.75,-210.0,
1326.765,-210.0,
1326.78,-210.0,
1326.795,-210.0,
1326.81,-210.0,
1326.825,-210.0,
1326.84,-210.0,
1326.855,-210.0,
1326.87,-210.0,
1326.885,-210.0,
1326.9,-210.0,
1326.915,-210.0,
1326.93,-96.69,
1326.945,-210.0,
1326.96,-93.11,
1326.975,-210.0,
1326.99,-100.02,
1327.005,-210.0,
1327.02,-89.05,
1327.035,-90.08,
1327.05,-210.0,
1327.065,-101.11,
1327.08,-91.29,
1327.095,-87.41,
1327.11,-89.3,
1327.125,-86.42,
1327.14,-90.69,
1327.155,-86.7,
1327.17,-91.03,
1327.185,-86.58,
1327.2,-89.0,
1327.215,-86.59,
1327.23,-87.42,
1327.245,-87.31,
1327.26,-88.78,
1327.275,-91.22,
1327.29,-86.31,
1327.305,-87.15,
1327.32,-84.71,
1327.335,-88.13,
1327.35,-85.29,
1327.365,-88.4,
1327.38,-88.24,
1327.395,-87.61,
1327.41,-85.91,
1327.425,-89.37,
1327.44,-90.99,
1327.455,-86.4,
1327.47,-88.07,
1327.485,-85.8,
1327.5,-85.99,
1327.515,-84.53,
1327.53,-85.43,
1327.545,-85.16,
1327.56,-89.26,
1327.575,-87.91,
1327.59,-88.45,
1327.605,-89.85,
1327.62,-86.97,
1327.635,-88.83,
1327.65,-90.66,
1327.665,-210.0,
1327.68,-88.81,
1327.695,-210.0,
1327.71,-89.6,
1327.725,-210.0,
1327.74,-91.71,
1327.755,-210.0,
1327.77,-91.66,
1327.785,-88.66,
1327.8,-89.28,
1327.815,-87.66,
1327.83,-98.39,
1327.845,-93.05,
1327.86,-210.0,
1327.875,-90.43,
1327.89,-210.0,
1327.905,-90.76,
1327.92,-210.0,
1327.935,-94.85,
1327.95,-99.56,
1327.965,-95.11,
1327.98,-94.23,
1327.995,-210.0,
1328.01,-92.14,
1328.025,-210.0,
1328.04,-210.0,
1328.055,-210.0,
1328.07,-210.0,
1328.085,-210.0,
1328.1,-210.0,
1328.115,-210.0,
1328.13,-210.0,
1328.145,-210.0,
1328.16,-210.0,
1328.175,-210.0,
1328.19,-210.0,
1328.205,-210.0,
1328.22,-210.0,
1328.235,-210.0,
1328.25,-210.0,
1328.265,-210.0,
1328.28,-210.0,
1328.295,-210.0,
1328.31,-210.0,
1328.325,-210.0,
1328.34,-210.0,
1328.355,-210.0,
1328.37,-96.56,
1328.385,-210.0,
1328.4,-94.17,
1328.415,-210.0,
1328.43,-101.13,
1328.445,-210.0,
1328.46,-94.23,
1328.475,-210.0,
1328.49,-210.0,
1328.505,-210.0,
1328.52,-210.0,
1328.535,-210.0,
1328.55,-210.0,
1328.565,-89.94,
1328.58,-93.98,
1328.595,-88.44,
1328.61,-95.71,
1328.625,-93.59,
1328.64,-210.0,
1328.655,-93.02,
1328.67,-210.0,
1328.685,-94.03,
1328.7,-98.88,
1328.715,-210.0,
1328.73,-210.0,
1328.745,-95.44,
1328.76,-89.17,
1328.775,-210.0,
1328.79,-95.04,
1328.805,-210.0,
1328.82,-95.92,
1328.835,-210.0,
1328.85,-210.0,
1328.865,-210.0,
1328.88,-210.0,
1328.895,-210.0,
1328.91,-210.0,
1328.925,-99.85,
1328.94,-210.0,
1328.955,-110.35,
1328.97,-210.0,
1328.985,-210.0,
1329.0,-210.0,
1329.015,-210.0,
1329.03,-91.99,
1329.045,-92.95,
1329.06,-210.0,
1329.075,-210.0,
1329.09,-210.0,
1329.105,-210.0,
1329.12,-88.09,
1329.135,-91.41,
1329.15,-87.69,
1329.165,-210.0,
1329.18,-87.12,
1329.195,-86.91,
1329.21,-86.02,
1329.225,-87.51,
1329.24,-86.97,
1329.255,-85.0,
1329.27,-86.36,
1329.285,-86.85,
1329.3,-87.37,
1329.315,-86.06,
1329.33,-90.1,
1329.345,-87.73,
1329.36,-92.93,
1329.375,-210.0,
1329.39,-210.0,
1329.405,-89.63,
1329.42,-87.18,
1329.435,-87.33,
1329.45,-85.76,
1329.465,-93.08,
1329.48,-88.63,
1329.495,-91.53,
1329.51,-88.15,
1329.525,-95.76,
1329.54,-91.11,
1329.555,-210.0,
1329.57,-90.92,
1329.585,-89.45,
1329.6,-92.47,
1329.615,-93.37,
1329.63,-90.48,
1329.645,-88.63,
1329.66,-103.7,
1329.675,-88.3,
1329.69,-210.0,
1329.705,-93.75,
1329.72,-210.0,
1329.735,-89.15,
1329.75,-98.7,
1329.765,-92.76,
1329.78,-210.0,
1329.795,-210.0,
1329.81,-92.5,
1329.825,-210.0,
1329.84,-210.0,
1329.855,-210.0,
1329.87,-90.48,
1329.885,-210.0,
1329.9,-89.81,
1329.915,-89.34,
1329.93,-89.7,
1329.945,-210.0,
1329.96,-89.73,
1329.975,-89.16,
1329.99,-88.51,
1330.005,-87.95,
1330.02,-92.82,
1330.035,-95.81,
1330.05,-210.0,
1330.065,-100.77,
1330.08,-210.0,
1330.095,-90.48,
1330.11,-210.0,
1330.125,-210.0,
1330.14,-210.0,
1330.155,-210.0,
1330.17,-210.0,
1330.185,-106.11,
1330.2,-210.0,
1330.215,-210.0,
1330.23,-210.0,
1330.245,-210.0,
1330.26,-210.0,
1330.275,-210.0,
1330.29,-210.0,
1330.305,-210.0,
1330.32,-210.0,
1330.335,-210.0,
1330.35,-210.0,
1330.365,-210.0,
1330.38,-89.52,
1330.395,-89.31,
1330.41,-91.48,
1330.425,-90.59,
1330.44,-100.71,
1330.455,-210.0,
1330.47,-90.17,
1330.485,-88.52,
1330.5,-93.32,
1330.515,-89.94,
1330.53,-87.41,
1330.545,-87.61,
1330.56,-89.17,
1330.575,-89.94,
1330.59,-87.58,
1330.605,-87.95,
1330.62,-88.93,
1330.635,-101.43,
1330.65,-91.83,
1330.665,-210.0,
1330.68,-92.88,
1330.695,-86.61,
1330.71,-87.91,
1330.725,-94.01,
1330.74,-92.01,
1330.755,-86.63,
1330.77,-88.49,
1330.785,-89.27,
1330.8,-99.06,
1330.815,-90.44,
1330.83,-92.02,
1330.845,-86.39,
1330.86,-87.3,
1330.875,-86.93,
1330.89,-91.98,
1330.905,-94.18,
1330.92,-93.38,
1330.935,-210.0,
1330.95,-210.0,
1330.965,-210.0,
1330.98,-89.86,
1330.995,-210.0,
1331.01,-210.0,
1331.025,-210.0,
1331.04,-210.0,
1331.055,-210.0,
1331.07,-88.82,
1331.085,-87.44,
1331.1,-91.05,
1331.115,-97.83,
1331.13,-210.0,
1331.145,-89.71,
1331.16,-210.0,
1331.175,-210.0,
1331.19,-210.0,
1331.205,-210.0,
1331.22,-210.0,
1331.235,-92.36,
1331.25,-95.76,
1331.265,-96.22,
1331.28,-210.0,
1331.295,-92.68,
1331.31,-88.39,
1331.325,-210.0,
1331.34,-98.16,
1331.355,-210.0,
1331.37,-95.3,
1331.385,-210.0,
1331.4,-210.0,
1331.415,-210.0,
1331.43,-210.0,
1331.445,-210.0,
1331.46,-210.0,
1331.475,-210.0,
1331.49,-210.0,
1331.505,-210.0,
1331.52,-210.0,
1331.535,-210.0,
1331.55,-210.0,
1331.565,-210.0,
1331.58,-210.0,
1331.595,-210.0,
1331.61,-210.0,
1331.625,-210.0,
1331.64,-210.0,
1331.655,-210.0,
1331.67,-210.0,
1331.685,-210.0,
1331.7,-210.0,
1331.715,-210.0,
1331.73,-210.0,
1331.745,-210.0,
1331.76,-210.0,
1331.775,-210.0,
1331.79,-210.0,
1331.805,-210.0,
1331.82,-210.0,
1331.835,-210.0,
1331.85,-210.0,
1331.865,-210.0,
1331.88,-210.0,
1331.895,-210.0,
1331.91,-210.0,
1331.925,-210.0,
1331.94,-210.0,
1331.955,-210.0,
1331.97,-210.0,
1331.985,-210.0,
1332.0,-210.0,
1332.015,-210.0,
1332.03,-210.0,
1332.045,-210.0,
1332.06,-210.0,
1332.075,-210.0,
1332.09,-210.0,
1332.105,-210.0,
1332.12,-210.0,
1332.135,-210.0,
1332.15,-210.0,
1332.165,-210.0,
1332.18,-210.0,
1332.195,-210.0,
1332.21,-210.0,
1332.225,-210.0,
1332.24,-210.0,
1332.255,-210.0,
1332.27,-210.0,
1332.285,-210.0,
1332.3,-210.0,
1332.315,-210.0,
1332.33,-210.0,
1332.345,-210.0,
1332.36,-210.0,
1332.375,-210.0,
1332.39,-210.0,
1332.405,-210.0,
1332.42,-210.0,
1332.435,-210.0,
1332.45,-210.0,
1332.465,-210.0,
1332.48,-210.0,
1332.495,-210.0,
1332.51,-210.0,
1332.525,-210.0,
1332.54,-210.0,
1332.555,-210.0,
1332.57,-210.0,
1332.585,-210.0,
1332.6,-210.0,
1332.615,-210.0,
1332.63,-210.0,
1332.645,-210.0,
1332.66,-210.0,
1332.675,-210.0,
1332.69,-210.0,
1332.705,-210.0,
1332.72,-210.0,
1332.735,-210.0,
1332.75,-210.0,
1332.765,-210.0,
1332.78,-210.0,
1332.795,-210.0,
1332.81,-210.0,
1332.825,-210.0,
1332.84,-210.0,
1332.855,-210.0,
1332.87,-210.0,
1332.885,-210.0,
1332.9,-210.0,
1332.915,-210.0,
1332.93,-210.0,
1332.945,-210.0,
1332.96,-210.0,
1332.975,-210.0,
1332.99,-210.0,
1333.005,-210.0,
1333.02,-210.0,
1333.035,-210.0,
1333.05,-210.0,
1333.065,-210.0,
1333.08,-210.0,
1333.095,-210.0,
1333.11,-210.0,
1333.125,-210.0,
1333.141,-210.0,
1333.155,-210.0,
1333.17,-210.0,
1333.185,-210.0,
1333.2,-210.0,
1333.215,-210.0,
1333.23,-210.0,
1333.245,-210.0,
1333.26,-210.0,
1333.276,-210.0,
1333.29,-210.0,
1333.305,-210.0,
1333.32,-210.0,
1333.335,-210.0,
1333.35,-210.0,
1333.365,-210.0,
1333.38,-210.0,
1333.396,-210.0,
1333.411,-210.0,
1333.426,-210.0,
1333.44,-210.0,
1333.455,-210.0,
1333.47,-93.5,
1333.485,-90.04,
1333.5,-210.0,
1333.516,-210.0,
1333.531,-105.86,
1333.546,-97.55,
1333.561,-103.27,
1333.575,-210.0,
1333.59,-92.07,
1333.605,-92.48,
1333.62,-93.07,
1333.635,-92.23,
1333.651,-89.11,
1333.666,-90.87,
1333.681,-91.76,
1333.696,-88.49,
1333.711,-91.24,
1333.725,-210.0,
1333.74,-210.0,
1333.755,-94.53,
1333.771,-92.73,
1333.786,-210.0,
1333.801,-210.0,
1333.816,-210.0,
1333.831,-210.0,
1333.846,-210.0,
1333.86,-210.0,
1333.875,-210.0,
1333.891,-210.0,
1333.906,-210.0,
1333.921,-210.0,
1333.936,-210.0,
1333.951,-210.0,
1333.966,-210.0,
1333.981,-90.73,
1333.996,-94.64,
1334.01,-210.0,
1334.026,-210.0,
1334.041,-210.0,
1334.056,-210.0,
1334.071,-210.0,
1334.086,-210.0,
1334.101,-210.0,
1334.116,-210.0,
1334.131,-210.0,
1334.146,-210.0,
1334.161,-210.0,
1334.176,-210.0,
1334.191,-210.0,
1334.206,-210.0,
1334.221,-210.0,
1334.236,-210.0,
1334.251,-210.0,
1334.266,-210.0,
1334.281,-210.0,
1334.296,-210.0,
1334.311,-210.0,
1334.326,-210.0,
1334.341,-210.0,
1334.356,-210.0,
1334.371,-95.32,
1334.386,-210.0,
1334.401,-210.0,
1334.416,-210.0,
1334.431,-210.0,
1334.446,-210.0,
1334.461,-210.0,
1334.476,-210.0,
1334.491,-210.0,
1334.506,-210.0,
1334.521,-210.0,
1334.536,-210.0,
1334.551,-210.0,
1334.566,-210.0,
1334.581,-210.0,
1334.596,-210.0,
1334.611,-210.0,
1334.626,-210.0,
1334.641,-210.0,
1334.656,-210.0,
1334.671,-210.0,
1334.686,-210.0,
1334.701,-210.0,
1334.716,-210.0,
1334.731,-210.0,
1334.746,-210.0,
1334.761,-93.03,
1334.776,-210.0,
1334.791,-210.0,
1334.806,-210.0,
1334.821,-98.67,
1334.836,-90.86,
1334.851,-87.93,
1334.866,-87.22,
1334.881,-87.94,
1334.896,-92.01,
1334.911,-88.89,
1334.926,-87.09,
1334.941,-93.33,
1334.956,-99.0,
1334.971,-94.45,
1334.986,-91.79,
1335.001,-92.87,
1335.016,-93.48,
1335.031,-210.0,
1335.046,-88.68,
1335.061,-88.72,
1335.076,-87.4,
1335.091,-85.69,
1335.106,-87.37,
1335.121,-89.23,
1335.136,-88.39,
1335.151,-88.2,
1335.166,-90.55,
1335.181,-88.72,
1335.196,-90.19,
1335.211,-89.06,
1335.226,-90.34,
1335.241,-88.23,
1335.256,-87.81,
1335.271,-88.02,
1335.286,-89.07,
1335.301,-88.98,
1335.316,-86.71,
1335.331,-87.65,
1335.346,-90.08,
1335.361,-91.37,
1335.376,-90.17,
1335.391,-99.13,
1335.406,-105.94,
1335.421,-92.65,
1335.436,-210.0,
1335.451,-210.0,
1335.466,-97.06,
1335.481,-95.59,
1335.496,-210.0,
1335.511,-210.0,
1335.526,-210.0,
1335.541,-210.0,
1335.556,-210.0,
1335.571,-210.0,
1335.586,-210.0,
1335.601,-92.96,
1335.616,-91.36,
1335.631,-91.91,
1335.646,-91.14,
1335.661,-210.0,
1335.676,-210.0,
1335.691,-90.54,
1335.706,-87.76,
1335.721,-105.4,
1335.736,-210.0,
1335.751,-210.0,
1335.766,-210.0,
1335.781,-210.0,
1335.796,-210.0,
1335.811,-210.0,
1335.826,-210.0,
1335.841,-210.0,
1335.856,-210.0,
1335.871,-210.0,
1335.886,-210.0,
1335.901,-210.0,
1335.916,-210.0,
1335.931,-95.88,
1335.946,-210.0,
1335.961,-210.0,
1335.976,-210.0,
1335.991,-210.0,
1336.006,-210.0,
1336.021,-210.0,
1336.036,-210.0,
1336.051,-210.0,
1336.066,-210.0,
1336.081,-210.0,
1336.096,-210.0,
1336.111,-210.0,
1336.126,-210.0,
1336.141,-210.0,
1336.156,-90.29,
1336.171,-210.0,
1336.186,-210.0,
1336.201,-210.0,
1336.216,-210.0,
1336.231,-210.0,
1336.246,-210.0,
1336.261,-210.0,
1336.276,-210.0,
1336.291,-210.0,
1336.306,-210.0,
1336.321,-210.0,
1336.336,-210.0,
1336.351,-210.0,
1336.366,-210.0,
1336.381,-210.0,
1336.396,-210.0,
1336.411,-210.0,
1336.426,-210.0,
1336.441,-106.31,
1336.456,-92.07,
1336.471,-87.27,
1336.486,-89.07,
1336.501,-99.6,
1336.516,-89.85,
1336.531,-86.36,
1336.546,-84.28,
1336.561,-86.78,
1336.576,-87.04,
1336.591,-91.33,
1336.606,-89.41,
1336.621,-90.87,
1336.636,-90.13,
1336.651,-108.11,
1336.666,-210.0,
1336.681,-91.4,
1336.696,-89.37,
1336.711,-92.37,
1336.726,-210.0,
1336.741,-210.0,
1336.756,-210.0,
1336.771,-95.74,
1336.786,-210.0,
1336.801,-210.0,
1336.816,-210.0,
1336.831,-210.0,
1336.846,-210.0,
1336.861,-210.0,
1336.876,-210.0,
1336.891,-210.0,
1336.906,-210.0,
1336.921,-210.0,
1336.936,-93.71,
1336.951,-210.0,
1336.966,-210.0,
1336.981,-93.63,
1336.996,-88.95,
1337.011,-210.0,
1337.026,-210.0,
1337.041,-210.0,
1337.056,-210.0,
1337.071,-210.0,
1337.086,-210.0,
1337.101,-210.0,
1337.116,-210.0,
1337.131,-210.0,
1337.146,-210.0,
1337.161,-210.0,
1337.176,-210.0,
1337.191,-210.0,
1337.206,-210.0,
1337.221,-210.0,
1337.236,-210.0,
1337.251,-210.0,
1337.266,-210.0,
1337.281,-210.0,
1337.296,-210.0,
1337.311,-210.0,
1337.326,-210.0,
1337.341,-210.0,
1337.356,-210.0,
1337.371,-210.0,
1337.386,-210.0,
1337.401,-210.0,
1337.416,-210.0,
1337.431,-210.0,
1337.446,-210.0,
1337.461,-210.0,
1337.476,-210.0,
1337.491,-210.0,
1337.506,-210.0,
1337.521,-210.0,
1337.536,-210.0,
1337.551,-210.0,
1337.566,-210.0,
1337.581,-210.0,
1337.596,-210.0,
1337.611,-210.0,
1337.626,-210.0,
1337.641,-210.0,
1337.656,-210.0,
1337.671,-210.0,
1337.686,-210.0,
1337.701,-210.0,
1337.716,-210.0,
1337.731,-210.0,
1337.746,-210.0,
1337.761,-210.0,
1337.776,-210.0,
1337.791,-210.0,
1337.806,-210.0,
1337.821,-210.0,
1337.836,-210.0,
1337.851,-210.0,
1337.866,-210.0,
1337.881,-210.0,
1337.896,-210.0,
1337.911,-210.0,
1337.926,-210.0,
1337.941,-210.0,
1337.956,-210.0,
1337.971,-210.0,
1337.986,-210.0,
1338.001,-210.0,
1338.016,-210.0,
1338.031,-210.0,
1338.046,-210.0,
1338.061,-210.0,
1338.076,-210.0,
1338.091,-210.0,
1338.106,-210.0,
1338.121,-210.0,
1338.136,-210.0,
1338.151,-210.0,
1338.166,-210.0,
1338.181,-210.0,
1338.196,-210.0,
1338.211,-210.0,
1338.226,-210.0,
1338.241,-210.0,
1338.256,-210.0,
1338.271,-210.0,
1338.286,-210.0,
1338.301,-210.0,
1338.316,-210.0,
1338.331,-210.0,
1338.346,-210.0,
1338.361,-210.0,
1338.376,-210.0,
1338.391,-210.0,
1338.406,-210.0,
1338.421,-210.0,
1338.436,-210.0,
1338.451,-210.0,
1338.466,-210.0,
1338.481,-210.0,
1338.496,-210.0,
1338.511,-210.0,
1338.526,-210.0,
1338.541,-210.0,
1338.556,-210.0,
1338.571,-210.0,
1338.586,-210.0,
1338.601,-210.0,
1338.616,-210.0,
1338.631,-210.0,
1338.646,-210.0,
1338.661,-210.0,
1338.676,-210.0,
1338.691,-210.0,
1338.706,-210.0,
1338.721,-210.0,
1338.736,-210.0,
1338.751,-210.0,
1338.766,-210.0,
1338.781,-210.0,
1338.796,-210.0,
1338.811,-210.0,
1338.826,-210.0,
1338.841,-210.0,
1338.856,-210.0,
1338.871,-210.0,
1338.886,-210.0,
1338.901,-210.0,
1338.916,-210.0,
1338.931,-210.0,
1338.946,-210.0,
1338.961,-210.0,
1338.976,-210.0,
1338.991,-210.0,
1339.006,-210.0,
1339.021,-210.0,
1339.036,-210.0,
1339.051,-210.0,
1339.066,-210.0,
1339.081,-102.37,
1339.096,-95.46,
1339.111,-210.0,
1339.126,-210.0,
1339.141,-210.0,
1339.156,-210.0,
1339.171,-210.0,
1339.186,-210.0,
1339.201,-210.0,
1339.216,-210.0,
1339.231,-210.0,
1339.246,-210.0,
1339.261,-210.0,
1339.276,-210.0,
1339.291,-210.0,
1339.306,-210.0,
1339.321,-210.0,
1339.336,-210.0,
1339.351,-210.0,
1339.366,-210.0,
1339.381,-210.0,
1339.396,-210.0,
1339.411,-210.0,
1339.426,-210.0,
1339.441,-210.0,
1339.456,-88.51,
1339.471,-85.31,
1339.486,-86.75,
1339.501,-93.5,
1339.516,-88.23,
1339.531,-86.33,
1339.546,-87.1,
1339.561,-92.68,
1339.576,-210.0,
1339.591,-210.0,
1339.606,-97.61,
1339.621,-88.38,
1339.636,-85.73,
1339.651,-88.37,
1339.666,-93.82,
1339.681,-87.04,
1339.696,-85.54,
1339.711,-87.9,
1339.726,-210.0,
1339.741,-210.0,
1339.756,-92.21,
1339.771,-91.73,
1339.786,-91.71,
1339.801,-91.64,
1339.816,-210.0,
1339.831,-210.0,
1339.846,-94.89,
1339.861,-88.3,
1339.876,-94.33,
1339.891,-210.0,
1339.906,-210.0,
1339.921,-210.0,
1339.936,-210.0,
1339.951,-210.0,
1339.966,-210.0,
1339.981,-210.0,
1339.996,-210.0,
1340.011,-95.65,
1340.026,-91.65,
1340.041,-210.0,
1340.056,-210.0,
1340.071,-89.55,
1340.086,-88.28,
1340.101,-94.26,
1340.116,-210.0,
1340.131,-113.84,
1340.146,-88.19,
1340.161,-87.28,
1340.176,-87.07,
1340.191,-88.45,
1340.206,-89.33,
1340.221,-90.36,
1340.236,-85.74,
1340.251,-84.47,
1340.266,-86.95,
1340.281,-88.46,
1340.296,-84.82,
1340.311,-83.25,
1340.326,-84.62,
1340.341,-85.22,
1340.356,-84.12,
1340.371,-84.62,
1340.386,-84.45,
1340.401,-84.64,
1340.416,-84.93,
1340.431,-86.84,
1340.446,-87.13,
1340.461,-85.01,
1340.476,-84.68,
1340.491,-87.8,
1340.506,-91.69,
1340.521,-89.36,
1340.536,-87.08,
1340.551,-86.87,
1340.566,-86.95,
1340.581,-85.69,
1340.596,-86.52,
1340.611,-85.06,
1340.626,-83.63,
1340.641,-85.59,
1340.656,-89.57,
1340.671,-88.05,
1340.686,-83.79,
1340.701,-84.17,
1340.716,-85.41,
1340.731,-90.69,
1340.746,-86.03,
1340.761,-86.39,
1340.776,-84.51,
1340.791,-85.02,
1340.806,-86.32,
1340.821,-102.08,
1340.836,-87.68,
1340.851,-84.15,
1340.866,-84.94,
1340.881,-90.32,
1340.896,-86.78,
1340.911,-84.21,
1340.926,-83.05,
1340.941,-83.33,
1340.956,-83.08,
1340.971,-83.02,
1340.986,-83.15,
1341.001,-81.15,
1341.016,-81.32,
1341.031,-82.67,
1341.046,-85.36,
1341.061,-83.47,
1341.076,-82.28,
1341.091,-82.51,
1341.106,-84.13,
1341.121,-84.08,
1341.136,-83.04,
1341.151,-83.6,
1341.167,-83.31,
1341.181,-84.23,
1341.196,-85.07,
1341.211,-85.79,
1341.226,-83.17,
1341.241,-82.29,
1341.256,-84.47,
1341.271,-86.09,
1341.286,-84.28,
1341.302,-81.97,
1341.316,-82.77,
1341.331,-83.43,
1341.346,-84.76,
1341.361,-85.16,
1341.376,-84.83,
1341.391,-83.01,
1341.406,-83.86,
1341.422,-85.45,
1341.437,-88.71,
1341.452,-83.97,
1341.466,-82.9,
1341.481,-85.8,
1341.496,-87.54,
1341.511,-85.45,
1341.526,-82.63,
1341.542,-83.53,
1341.557,-83.04,
1341.572,-84.41,
1341.587,-84.64,
1341.601,-85.14,
1341.616,-82.72,
1341.631,-83.24,
1341.646,-85.53,
1341.661,-88.52,
1341.677,-84.42,
1341.692,-84.22,
1341.707,-86.12,
1341.722,-86.45,
1341.737,-85.34,
1341.751,-84.65,
1341.766,-84.74,
1341.781,-84.26,
1341.797,-86.87,
1341.812,-89.74,
1341.827,-86.58,
1341.842,-83.49,
1341.857,-84.76,
1341.872,-94.46,
1341.887,-99.91,
1341.901,-92.4,
1341.917,-87.7,
1341.932,-93.06,
1341.947,-92.35,
1341.962,-210.0,
1341.977,-210.0,
1341.992,-210.0,
1342.007,-210.0,
1342.022,-210.0,
1342.036,-210.0,
1342.052,-210.0,
1342.067,-92.77,
1342.082,-104.46,
1342.097,-210.0,
1342.112,-210.0,
1342.127,-210.0,
1342.142,-210.0,
1342.157,-100.35,
1342.172,-95.84,
1342.187,-210.0,
1342.202,-210.0,
1342.217,-210.0,
1342.232,-87.09,
1342.247,-210.0,
1342.262,-210.0,
1342.277,-210.0,
1342.292,-210.0,
1342.307,-210.0,
1342.322,-210.0,
1342.337,-210.0,
1342.352,-210.0,
1342.367,-210.0,
1342.382,-210.0,
1342.397,-210.0,
1342.412,-210.0,
1342.427,-210.0,
1342.442,-210.0,
1342.457,-210.0,
1342.472,-210.0,
1342.487,-210.0,
1342.502,-210.0,
1342.517,-210.0,
1342.532,-210.0,
1342.547,-210.0,
1342.562,-210.0,
1342.577,-210.0,
1342.592,-210.0,
1342.607,-210.0,
1342.622,-210.0,
1342.637,-210.0,
1342.652,-210.0,
1342.667,-210.0,
1342.682,-90.02,
1342.697,-210.0,
1342.712,-210.0,
1342.727,-210.0,
1342.742,-210.0,
1342.757,-210.0,
1342.772,-93.58,
1342.787,-94.1,
1342.802,-210.0,
1342.817,-210.0,
1342.832,-97.09,
1342.847,-88.3,
1342.862,-210.0,
1342.877,-210.0,
1342.892,-95.73,
1342.907,-88.2,
1342.922,-88.98,
1342.937,-89.25,
1342.952,-88.99,
1342.967,-210.0,
1342.982,-90.44,
1342.997,-86.41,
1343.012,-86.66,
1343.027,-210.0,
1343.042,-210.0,
1343.057,-99.29,
1343.072,-92.31,
1343.087,-102.43,
1343.102,-92.32,
1343.117,-92.24,
1343.132,-100.48,
1343.147,-92.32,
1343.162,-90.26,
1343.177,-210.0,
1343.192,-210.0,
1343.207,-96.98,
1343.222,-89.46,
1343.237,-92.12,
1343.252,-210.0,
1343.267,-210.0,
1343.282,-210.0,
1343.297,-92.65,
1343.312,-210.0,
1343.327,-210.0,
1343.342,-210.0,
1343.357,-210.0,
1343.372,-89.08,
1343.387,-87.11,
1343.402,-90.89,
1343.417,-210.0,
1343.432,-210.0,
1343.447,-88.41,
1343.462,-86.76,
1343.477,-94.29,
1343.492,-94.65,
1343.507,-91.78,
1343.522,-89.26,
1343.537,-89.39,
1343.552,-89.96,
1343.567,-210.0,
1343.582,-210.0,
1343.597,-85.28,
1343.612,-85.3,
1343.627,-88.42,
1343.642,-210.0,
1343.657,-210.0,
1343.672,-210.0,
1343.687,-93.87,
1343.702,-210.0,
1343.717,-210.0,
1343.732,-210.0,
1343.747,-210.0,
1343.762,-92.56,
1343.777,-92.81,
1343.792,-210.0,
1343.807,-210.0,
1343.822,-87.14,
1343.837,-86.66,
1343.852,-91.29,
1343.867,-210.0,
1343.882,-210.0,
1343.897,-210.0,
1343.912,-97.06,
1343.927,-94.67,
1343.942,-105.45,
1343.957,-210.0,
1343.972,-210.0,
1343.987,-89.62,
1344.002,-89.42,
1344.017,-210.0,
1344.032,-210.0,
1344.047,-86.79,
1344.062,-86.88,
1344.077,-85.87,
1344.092,-92.83,
1344.107,-91.75,
1344.122,-210.0,
1344.137,-88.77,
1344.152,-88.01,
1344.167,-93.5,
1344.182,-210.0,
1344.197,-210.0,
1344.212,-87.75,
1344.227,-87.21,
1344.242,-94.64,
1344.257,-210.0,
1344.272,-90.32,
1344.287,-93.65,
1344.302,-88.59,
1344.317,-90.75,
1344.332,-90.04,
1344.347,-210.0,
1344.362,-105.6,
1344.377,-90.34,
1344.392,-210.0,
1344.407,-210.0,
1344.422,-210.0,
1344.437,-91.26,
1344.452,-111.83,
1344.467,-210.0,
1344.482,-210.0,
1344.497,-210.0,
1344.512,-210.0,
1344.527,-210.0,
1344.542,-210.0,
1344.557,-210.0,
1344.572,-210.0,
1344.587,-210.0,
1344.602,-210.0,
1344.617,-210.0,
1344.632,-210.0,
1344.647,-210.0,
1344.662,-210.0,
1344.677,-210.0,
1344.692,-210.0,
1344.707,-210.0,
1344.722,-210.0,
1344.737,-210.0,
1344.752,-210.0,
1344.767,-210.0,
1344.782,-210.0,
1344.797,-210.0,
1344.812,-210.0,
1344.827,-210.0,
1344.842,-210.0,
1344.857,-210.0,
1344.872,-210.0,
1344.887,-210.0,
1344.902,-210.0,
1344.917,-210.0,
1344.932,-210.0,
1344.947,-210.0,
1344.962,-210.0,
1344.977,-210.0,
1344.992,-210.0,
1345.007,-210.0,
1345.022,-210.0,
1345.037,-210.0,
1345.052,-210.0,
1345.067,-210.0,
1345.082,-210.0,
1345.097,-210.0,
1345.112,-210.0,
1345.127,-210.0,
1345.142,-210.0,
1345.157,-210.0,
1345.172,-210.0,
1345.187,-210.0,
1345.202,-210.0,
1345.217,-210.0,
1345.232,-210.0,
1345.247,-210.0,
1345.262,-210.0,
1345.277,-210.0,
1345.292,-210.0,
1345.307,-210.0,
1345.322,-210.0,
1345.337,-210.0,
1345.352,-210.0,
1345.367,-210.0,
1345.382,-210.0,
1345.397,-210.0,
1345.412,-210.0,
1345.427,-210.0,
1345.442,-210.0,
1345.457,-210.0,
1345.472,-210.0,
1345.487,-210.0,
1345.502,-210.0,
1345.517,-210.0,
1345.532,-210.0,
1345.547,-210.0,
1345.562,-210.0,
1345.577,-210.0,
1345.592,-90.61,
1345.607,-210.0,
1345.622,-210.0,
1345.637,-210.0,
1345.652,-210.0,
1345.667,-210.0,
1345.682,-210.0,
1345.697,-210.0,
1345.712,-210.0,
1345.727,-210.0,
1345.742,-210.0,
1345.757,-87.22,
1345.772,-210.0,
1345.787,-210.0,
1345.802,-210.0,
1345.817,-85.74,
1345.832,-89.06,
1345.847,-89.43,
1345.862,-210.0,
1345.877,-92.67,
1345.892,-210.0,
1345.907,-87.68,
1345.922,-93.82,
1345.937,-210.0,
1345.952,-210.0,
1345.967,-210.0,
1345.982,-88.86,
1345.997,-210.0,
1346.012,-210.0,
1346.027,-210.0,
1346.042,-88.47,
1346.057,-210.0,
1346.072,-93.11,
1346.087,-210.0,
1346.102,-210.0,
1346.117,-210.0,
1346.132,-89.94,
1346.147,-93.88,
1346.162,-210.0,
1346.177,-210.0,
1346.192,-210.0,
1346.207,-88.76,
1346.222,-210.0,
1346.237,-210.0,
1346.252,-210.0,
1346.267,-92.28,
1346.282,-102.15,
1346.297,-87.7,
1346.312,-210.0,
1346.327,-210.0,
1346.342,-210.0,
1346.357,-86.17,
1346.372,-89.68,
1346.387,-210.0,
1346.402,-210.0,
1346.417,-210.0,
1346.432,-86.27,
1346.447,-92.86,
1346.462,-99.35,
1346.477,-210.0,
1346.492,-210.0,
1346.507,-102.76,
1346.522,-84.97,
1346.537,-102.34,
1346.552,-210.0,
1346.567,-210.0,
1346.582,-87.18,
1346.597,-89.13,
1346.612,-210.0,
1346.627,-210.0,
1346.642,-210.0,
1346.657,-89.22,
1346.672,-89.14,
1346.687,-87.18,
1346.702,-210.0,
1346.717,-210.0,
1346.732,-210.0,
1346.747,-85.67,
1346.762,-94.13,
1346.777,-210.0,
1346.792,-210.0,
1346.807,-210.0,
1346.822,-210.0,
1346.837,-210.0,
1346.852,-210.0,
1346.867,-210.0,
1346.882,-210.0,
1346.897,-210.0,
1346.912,-210.0,
1346.927,-210.0,
1346.942,-210.0,
1346.957,-210.0,
1346.972,-93.13,
1346.987,-210.0,
1347.002,-210.0,
1347.017,-210.0,
1347.032,-210.0,
1347.047,-210.0,
1347.062,-210.0,
1347.077,-210.0,
1347.092,-210.0,
1347.107,-210.0,
1347.122,-210.0,
1347.137,-210.0,
1347.152,-210.0,
1347.167,-210.0,
1347.182,-210.0,
1347.197,-210.0,
1347.212,-210.0,
1347.227,-210.0,
1347.242,-210.0,
1347.257,-210.0,
1347.272,-210.0,
1347.287,-210.0,
1347.302,-210.0,
1347.317,-210.0,
1347.332,-210.0,
1347.347,-210.0,
1347.362,-210.0,
1347.377,-210.0,
1347.392,-210.0,
1347.407,-210.0,
1347.422,-210.0,
1347.437,-210.0,
1347.452,-210.0,
1347.467,-210.0,
1347.482,-210.0,
1347.497,-210.0,
1347.512,-210.0,
1347.527,-210.0,
1347.542,-210.0,
1347.557,-210.0,
1347.572,-210.0,
1347.587,-210.0,
1347.602,-210.0,
1347.617,-210.0,
1347.632,-210.0,
1347.647,-210.0,
1347.662,-210.0,
1347.677,-210.0,
1347.692,-210.0,
1347.707,-210.0,
1347.722,-210.0,
1347.737,-210.0,
1347.752,-210.0,
1347.767,-210.0,
1347.782,-210.0,
1347.797,-210.0,
1347.812,-210.0,
1347.827,-210.0,
1347.842,-210.0,
1347.857,-210.0,
1347.872,-210.0,
1347.887,-210.0,
1347.902,-210.0,
1347.917,-210.0,
1347.932,-210.0,
1347.947,-210.0,
1347.962,-210.0,
1347.977,-210.0,
1347.992,-210.0,
1348.007,-210.0,
1348.022,-210.0,
1348.037,-210.0,
1348.052,-210.0,
1348.067,-210.0,
1348.082,-210.0,
1348.097,-210.0,
1348.112,-210.0,
1348.127,-93.33,
1348.142,-210.0,
1348.157,-210.0,
1348.172,-210.0,
1348.187,-210.0,
1348.202,-210.0,
1348.217,-210.0,
1348.232,-210.0,
1348.247,-210.0,
1348.262,-210.0,
1348.277,-210.0,
1348.292,-210.0,
1348.307,-210.0,
1348.322,-210.0,
1348.337,-91.64,
1348.352,-87.46,
1348.367,-210.0,
1348.382,-210.0,
1348.397,-210.0,
1348.412,-210.0,
1348.427,-104.68,
1348.442,-210.0,
1348.457,-210.0,
1348.472,-210.0,
1348.487,-89.33,
1348.502,-90.76,
1348.517,-92.81,
1348.532,-210.0,
1348.547,-210.0,
1348.562,-210.0,
1348.577,-88.95,
1348.592,-210.0,
1348.607,-210.0,
1348.622,-210.0,
1348.637,-210.0,
1348.652,-210.0,
1348.667,-210.0,
1348.682,-210.0,
1348.697,-210.0,
1348.712,-86.58,
1348.727,-88.76,
1348.742,-86.49,
1348.757,-210.0,
1348.772,-85.78,
1348.787,-86.26,
1348.802,-84.0,
1348.817,-84.69,
1348.832,-88.19,
1348.847,-88.75,
1348.862,-86.27,
1348.877,-83.2,
1348.892,-83.99,
1348.907,-86.72,
1348.922,-89.22,
1348.937,-83.52,
1348.952,-85.12,
1348.967,-83.54,
1348.982,-86.41,
1348.997,-84.76,
1349.012,-88.41,
1349.027,-83.79,
1349.042,-83.55,
1349.057,-85.48,
1349.072,-91.21,
1349.087,-90.49,
1349.102,-84.47,
1349.117,-86.39,
1349.132,-92.48,
1349.147,-210.0,
1349.162,-89.18,
1349.177,-210.0,
1349.193,-87.52,
1349.207,-94.45,
1349.222,-89.18,
1349.237,-210.0,
1349.252,-86.91,
1349.267,-87.16,
1349.282,-93.25,
1349.297,-210.0,
1349.313,-210.0,
1349.328,-89.3,
1349.343,-93.84,
1349.357,-210.0,
1349.372,-210.0,
1349.387,-210.0,
1349.402,-210.0,
1349.417,-86.95,
1349.432,-90.71,
1349.448,-210.0,
1349.463,-210.0,
1349.478,-87.66,
1349.492,-92.89,
1349.507,-210.0,
1349.522,-210.0,
1349.537,-210.0,
1349.552,-210.0,
1349.568,-210.0,
1349.583,-210.0,
1349.598,-210.0,
1349.613,-210.0,
1349.628,-210.0,
1349.642,-89.14,
1349.657,-91.56,
1349.672,-210.0,
1349.688,-210.0,
1349.703,-210.0,
1349.718,-210.0,
1349.733,-210.0,
1349.748,-210.0,
1349.763,-210.0,
1349.777,-210.0,
1349.792,-210.0,
1349.807,-210.0,
1349.823,-210.0,
1349.838,-210.0,
1349.853,-210.0,
1349.868,-210.0,
1349.883,-210.0,
1349.898,-210.0,
1349.913,-210.0,
1349.927,-210.0,
1349.943,-210.0,
1349.958,-210.0,
1349.973,-210.0,
1349.988,-210.0,
1350.003,-210.0,
1350.018,-210.0,
1350.033,-210.0,
1350.048,-210.0,
1350.063,-210.0,
1350.078,-210.0,
1350.093,-90.49,
1350.108,-210.0,
1350.123,-210.0,
1350.138,-210.0,
1350.153,-210.0,
1350.168,-210.0,
1350.183,-90.3,
1350.198,-210.0,
1350.213,-210.0,
1350.228,-210.0,
1350.243,-99.8,
1350.258,-91.05,
1350.273,-210.0,
1350.288,-210.0,
1350.303,-210.0,
1350.318,-93.72,
1350.333,-210.0,
1350.348,-210.0,
1350.363,-210.0,
1350.378,-210.0,
1350.393,-210.0,
1350.408,-210.0,
1350.423,-210.0,
1350.438,-210.0,
1350.453,-210.0,
1350.468,-210.0,
1350.483,-210.0,
1350.498,-210.0,
1350.513,-210.0,
1350.528,-210.0,
1350.543,-210.0,
1350.558,-210.0,
1350.573,-210.0,
1350.588,-210.0,
1350.603,-210.0,
1350.618,-210.0,
1350.633,-210.0,
1350.648,-210.0,
1350.663,-210.0,
1350.678,-210.0,
1350.693,-210.0,
1350.708,-210.0,
1350.723,-210.0,
1350.738,-210.0,
1350.753,-210.0,
1350.768,-210.0,
1350.783,-210.0,
1350.798,-210.0,
1350.813,-210.0,
1350.828,-210.0,
1350.843,-210.0,
1350.858,-210.0,
1350.873,-210.0,
1350.888,-210.0,
1350.903,-210.0,
1350.918,-210.0,
1350.933,-210.0,
1350.948,-210.0,
1350.963,-210.0,
1350.978,-210.0,
1350.993,-210.0,
1351.008,-210.0,
1351.023,-210.0,
1351.038,-210.0,
1351.053,-210.0,
1351.068,-210.0,
1351.083,-210.0,
1351.098,-210.0,
1351.113,-210.0,
1351.128,-210.0,
1351.143,-210.0,
1351.158,-210.0,
1351.173,-210.0,
1351.188,-210.0,
1351.203,-210.0,
1351.218,-210.0,
1351.233,-210.0,
1351.248,-210.0,
1351.263,-210.0,
1351.278,-210.0,
1351.293,-210.0,
1351.308,-210.0,
1351.323,-210.0,
1351.338,-210.0,
1351.353,-210.0,
1351.368,-210.0,
1351.383,-210.0,
1351.398,-210.0,
1351.413,-210.0,
1351.428,-210.0,
1351.443,-210.0,
1351.458,-210.0,
1351.473,-210.0,
1351.488,-210.0,
1351.503,-210.0,
1351.518,-210.0,
1351.533,-210.0,
1351.548,-210.0,
1351.563,-210.0,
1351.578,-210.0,
1351.593,-210.0,
1351.608,-210.0,
1351.623,-210.0,
1351.638,-210.0,
1351.653,-210.0,
1351.668,-210.0,
1351.683,-210.0,
1351.698,-210.0,
1351.713,-210.0,
1351.728,-210.0,
1351.743,-210.0,
1351.758,-210.0,
1351.773,-210.0,
1351.788,-87.49,
1351.803,-210.0,
1351.818,-210.0,
1351.833,-95.59,
1351.848,-87.17,
1351.863,-92.98,
1351.878,-210.0,
1351.893,-210.0,
1351.908,-210.0,
1351.923,-92.33,
1351.938,-93.47,
1351.953,-210.0,
1351.968,-210.0,
1351.983,-210.0,
1351.998,-210.0,
1352.013,-91.08,
1352.028,-210.0,
1352.043,-210.0,
1352.058,-210.0,
1352.073,-210.0,
1352.088,-210.0,
1352.103,-210.0,
1352.118,-210.0,
1352.133,-210.0,
1352.148,-103.12,
1352.163,-91.01,
1352.178,-210.0,
1352.193,-210.0,
1352.208,-210.0,
1352.223,-210.0,
1352.238,-93.27,
1352.253,-210.0,
1352.268,-210.0,
1352.283,-210.0,
1352.298,-90.81,
1352.313,-91.04,
1352.328,-91.77,
1352.343,-210.0,
1352.358,-210.0,
1352.373,-94.5,
1352.388,-88.21,
1352.403,-96.48,
1352.418,-210.0,
1352.433,-210.0,
1352.448,-210.0,
1352.463,-90.09,
1352.478,-210.0,
1352.493,-210.0,
1352.508,-210.0,
1352.523,-210.0,
1352.538,-98.15,
1352.553,-101.29,
1352.568,-210.0,
1352.583,-210.0,
1352.598,-210.0,
1352.613,-210.0,
1352.628,-210.0,
1352.643,-210.0,
1352.658,-210.0,
1352.673,-210.0,
1352.688,-92.71,
1352.703,-210.0,
1352.718,-210.0,
1352.733,-210.0,
1352.748,-210.0,
1352.763,-94.02,
1352.778,-101.19,
1352.793,-210.0,
1352.808,-210.0,
1352.823,-210.0,
1352.838,-210.0,
1352.853,-210.0,
1352.868,-210.0,
1352.883,-210.0,
1352.898,-210.0,
1352.913,-210.0,
1352.928,-210.0,
1352.943,-210.0,
1352.958,-210.0,
1352.973,-210.0,
1352.988,-97.21,
1353.003,-97.65,
1353.018,-210.0,
1353.033,-210.0,
1353.048,-210.0,
1353.063,-92.11,
1353.078,-90.37,
1353.093,-210.0,
1353.108,-210.0,
1353.123,-210.0,
1353.138,-86.9,
1353.153,-90.59,
1353.168,-210.0,
1353.183,-210.0,
1353.198,-86.5,
1353.213,-89.37,
1353.228,-89.04,
1353.243,-210.0,
1353.258,-210.0,
1353.273,-210.0,
1353.288,-88.04,
1353.303,-87.3,
1353.318,-92.44,
1353.333,-210.0,
1353.348,-93.17,
1353.363,-83.21,
1353.378,-84.44,
1353.393,-86.88,
1353.408,-210.0,
1353.423,-84.79,
1353.438,-86.07,
1353.453,-83.18,
1353.468,-84.8,
1353.483,-84.65,
1353.498,-87.42,
1353.513,-82.11,
1353.528,-82.35,
1353.543,-84.49,
1353.558,-91.46,
1353.573,-85.39,
1353.588,-82.68,
1353.603,-82.96,
1353.618,-83.44,
1353.633,-84.79,
1353.648,-83.46,
1353.663,-85.15,
1353.678,-82.49,
1353.693,-84.39,
1353.708,-84.52,
1353.723,-89.59,
1353.738,-82.72,
1353.753,-83.14,
1353.768,-85.96,
1353.783,-210.0,
1353.798,-86.64,
1353.813,-84.4,
1353.828,-83.7,
1353.843,-83.32,
1353.858,-85.83,
1353.873,-85.56,
1353.888,-87.74,
1353.903,-82.67,
1353.918,-84.77,
1353.933,-85.3,
1353.948,-86.82,
1353.963,-82.02,
1353.978,-83.87,
1353.993,-84.42,
1354.008,-87.91,
1354.023,-86.24,
1354.038,-88.74,
1354.053,-85.19,
1354.068,-84.78,
1354.083,-91.15,
1354.098,-210.0,
1354.113,-210.0,
1354.128,-84.36,
1354.143,-92.6,
1354.158,-98.35,
1354.173,-210.0,
1354.188,-87.9,
1354.203,-210.0,
1354.218,-89.77,
1354.233,-210.0,
1354.248,-210.0,
1354.263,-210.0,
1354.278,-86.06,
1354.293,-85.92,
1354.308,-210.0,
1354.323,-210.0,
1354.338,-100.96,
1354.353,-86.83,
1354.368,-210.0,
1354.383,-210.0,
1354.398,-210.0,
1354.413,-90.15,
1354.428,-96.45,
1354.443,-85.77,
1354.458,-210.0,
1354.473,-210.0,
1354.488,-210.0,
1354.503,-84.91,
1354.518,-88.07,
1354.533,-210.0,
1354.548,-210.0,
1354.563,-101.8,
1354.578,-89.42,
1354.593,-92.57,
1354.608,-91.01,
1354.623,-210.0,
1354.638,-210.0,
1354.653,-210.0,
1354.668,-84.77,
1354.683,-95.3,
1354.698,-210.0,
1354.713,-210.0,
1354.728,-83.36,
1354.743,-85.75,
1354.758,-90.07,
1354.773,-210.0,
1354.788,-87.97,
1354.803,-86.77,
1354.818,-85.28,
1354.833,-85.38,
1354.848,-210.0,
1354.863,-210.0,
1354.878,-88.94,
1354.893,-83.7,
1354.908,-96.25,
1354.923,-95.77,
1354.938,-94.5,
1354.953,-84.34,
1354.968,-87.6,
1354.983,-85.8,
1354.998,-90.3,
1355.013,-88.59,
1355.028,-86.8,
1355.043,-83.06,
1355.058,-83.53,
1355.073,-87.73,
1355.088,-86.48,
1355.103,-82.64,
1355.118,-81.45,
1355.133,-83.61,
1355.148,-82.61,
1355.163,-82.79,
1355.178,-81.56,
1355.193,-82.19,
1355.208,-81.09,
1355.223,-83.54,
1355.238,-83.61,
1355.253,-82.81,
1355.268,-80.75,
1355.283,-82.88,
1355.298,-85.74,
1355.313,-84.71,
1355.328,-82.14,
1355.343,-82.51,
1355.358,-83.86,
1355.373,-83.34,
1355.388,-84.34,
1355.403,-82.58,
1355.418,-82.93,
1355.433,-81.61,
1355.448,-87.26,
1355.463,-86.05,
1355.478,-84.32,
1355.493,-81.48,
1355.508,-84.57,
1355.523,-85.02,
1355.538,-85.41,
1355.553,-83.03,
1355.568,-82.44,
1355.583,-82.23,
1355.598,-82.0,
1355.613,-84.34,
1355.628,-82.8,
1355.643,-81.55,
1355.658,-81.12,
1355.673,-84.72,
1355.688,-83.01,
1355.703,-82.25,
1355.718,-80.69,
1355.733,-82.67,
1355.748,-81.79,
1355.763,-83.35,
1355.778,-82.11,
1355.793,-81.64,
1355.808,-80.63,
1355.823,-82.39,
1355.838,-83.84,
1355.853,-82.39,
1355.868,-80.5,
1355.883,-80.76,
1355.898,-82.94,
1355.913,-82.06,
1355.928,-82.35,
1355.943,-81.1,
1355.958,-82.15,
1355.973,-81.45,
1355.988,-84.0,
1356.003,-82.76,
1356.018,-81.67,
1356.033,-80.52,
1356.048,-82.88,
1356.063,-84.86,
1356.078,-83.23,
1356.093,-81.5,
1356.108,-82.64,
1356.123,-83.72,
1356.138,-83.67,
1356.153,-85.61,
1356.168,-83.84,
1356.183,-83.55,
1356.198,-82.91,
1356.213,-90.58,
1356.228,-85.4,
1356.243,-83.65,
1356.258,-82.16,
1356.273,-86.57,
1356.288,-85.7,
1356.303,-84.56,
1356.318,-83.15,
1356.333,-83.51,
1356.348,-83.45,
1356.363,-83.98,
1356.378,-85.97,
1356.393,-83.66,
1356.408,-82.34,
1356.423,-81.73,
1356.438,-86.19,
1356.453,-83.25,
1356.468,-82.63,
1356.483,-81.65,
1356.498,-85.02,
1356.513,-84.11,
1356.528,-86.34,
1356.543,-84.77,
1356.558,-83.79,
1356.573,-83.36,
1356.588,-89.16,
1356.603,-210.0,
1356.618,-87.37,
1356.633,-84.75,
1356.648,-87.24,
1356.663,-210.0,
1356.678,-89.62,
1356.693,-91.88,
1356.708,-85.54,
1356.723,-94.92,
1356.738,-87.68,
1356.753,-210.0,
1356.768,-87.79,
1356.783,-85.55,
1356.798,-84.57,
1356.813,-210.0,
1356.828,-210.0,
1356.843,-92.23,
1356.858,-88.28,
1356.873,-96.02,
1356.888,-210.0,
1356.903,-210.0,
1356.918,-210.0,
1356.933,-210.0,
1356.948,-210.0,
1356.963,-210.0,
1356.978,-210.0,
1356.993,-210.0,
1357.008,-210.0,
1357.023,-210.0,
1357.038,-210.0,
1357.053,-210.0,
1357.068,-210.0,
1357.083,-210.0,
1357.098,-210.0,
1357.113,-210.0,
1357.128,-210.0,
1357.143,-210.0,
1357.158,-210.0,
1357.173,-210.0,
1357.188,-210.0,
1357.203,-210.0,
1357.219,-210.0,
1357.233,-210.0,
1357.248,-210.0,
1357.263,-210.0,
1357.278,-210.0,
1357.293,-210.0,
1357.308,-210.0,
1357.323,-210.0,
1357.339,-210.0,
1357.354,-210.0,
1357.369,-210.0,
1357.383,-210.0,
1357.398,-210.0,
1357.413,-210.0,
1357.428,-210.0,
1357.443,-210.0,
1357.458,-210.0,
1357.474,-210.0,
1357.489,-210.0,
1357.504,-210.0,
1357.518,-210.0,
1357.533,-210.0,
1357.548,-210.0,
1357.563,-210.0,
1357.578,-210.0,
1357.594,-210.0,
1357.609,-210.0,
1357.624,-210.0,
1357.639,-210.0,
1357.654,-210.0,
1357.668,-210.0,
1357.683,-210.0,
1357.698,-210.0,
1357.714,-210.0,
1357.729,-210.0,
1357.744,-210.0,
1357.759,-210.0,
1357.774,-210.0,
1357.789,-210.0,
1357.803,-210.0,
1357.818,-210.0,
1357.833,-210.0,
1357.849,-210.0,
1357.864,-210.0,
1357.879,-210.0,
1357.894,-210.0,
1357.909,-210.0,
1357.924,-210.0,
1357.939,-210.0,
1357.953,-210.0,
1357.969,-210.0,
1357.984,-210.0,
1357.999,-210.0,
1358.014,-210.0,
1358.029,-210.0,
1358.044,-210.0,
1358.059,-210.0,
1358.074,-210.0,
1358.089,-210.0,
1358.104,-210.0,
1358.119,-210.0,
1358.134,-210.0,
1358.149,-210.0,
1358.164,-210.0,
1358.179,-210.0,
1358.194,-210.0,
1358.209,-210.0,
1358.224,-210.0,
1358.239,-210.0,
1358.254,-210.0,
1358.269,-210.0,
1358.284,-210.0,
1358.299,-210.0,
1358.314,-210.0,
1358.329,-210.0,
1358.344,-210.0,
1358.359,-210.0,
1358.374,-210.0,
1358.389,-210.0,
1358.404,-210.0,
1358.419,-210.0,
1358.434,-210.0,
1358.449,-210.0,
1358.464,-210.0,
1358.479,-210.0,
1358.494,-210.0,
1358.509,-210.0,
1358.524,-114.3,
1358.539,-210.0,
1358.554,-210.0,
1358.569,-210.0,
1358.584,-210.0,
1358.599,-210.0,
1358.614,-210.0,
1358.629,-210.0,
1358.644,-210.0,
1358.659,-210.0,
1358.674,-210.0,
1358.689,-210.0,
1358.704,-210.0,
1358.719,-210.0,
1358.734,-210.0,
1358.749,-210.0,
1358.764,-210.0,
1358.779,-210.0,
1358.794,-210.0,
1358.809,-210.0,
1358.824,-210.0,
1358.839,-210.0,
1358.854,-210.0,
1358.869,-210.0,
1358.884,-210.0,
1358.899,-210.0,
1358.914,-210.0,
1358.929,-210.0,
1358.944,-210.0,
1358.959,-210.0,
1358.974,-210.0,
1358.989,-210.0,
1359.004,-210.0,
1359.019,-210.0,
1359.034,-210.0,
1359.049,-210.0,
1359.064,-210.0,
1359.079,-210.0,
1359.094,-210.0,
1359.109,-210.0,
1359.124,-210.0,
1359.139,-210.0,
1359.154,-210.0,
1359.169,-210.0,
1359.184,-210.0,
1359.199,-210.0,
1359.214,-210.0,
1359.229,-210.0,
1359.244,-210.0,
1359.259,-210.0,
1359.274,-210.0,
1359.289,-210.0,
1359.304,-210.0,
1359.319,-210.0,
1359.334,-210.0,
1359.349,-210.0,
1359.364,-210.0,
1359.379,-210.0,
1359.394,-210.0,
1359.409,-210.0,
1359.424,-210.0,
1359.439,-210.0,
1359.454,-210.0,
1359.469,-210.0,
1359.484,-210.0,
1359.499,-210.0,
1359.514,-210.0,
1359.529,-210.0,
1359.544,-210.0,
1359.559,-210.0,
1359.574,-210.0,
1359.589,-210.0,
1359.604,-210.0,
1359.619,-210.0,
1359.634,-210.0,
1359.649,-210.0,
1359.664,-210.0,
1359.679,-210.0,
1359.694,-210.0,
1359.709,-210.0,
1359.724,-210.0,
1359.739,-210.0,
1359.754,-210.0,
1359.769,-210.0,
1359.784,-210.0,
1359.799,-210.0,
1359.814,-210.0,
1359.829,-210.0,
1359.844,-210.0,
1359.859,-210.0,
1359.874,-98.36,
1359.889,-86.96,
1359.904,-210.0,
1359.919,-210.0,
1359.934,-210.0,
1359.949,-88.68,
1359.964,-210.0,
1359.979,-210.0,
1359.994,-210.0,
1360.009,-210.0,
1360.024,-99.67,
1360.039,-91.37,
1360.054,-210.0,
1360.069,-210.0,
1360.084,-210.0,
1360.099,-95.1,
1360.114,-87.4,
1360.129,-210.0,
1360.144,-210.0,
1360.159,-210.0,
1360.174,-210.0,
1360.189,-210.0,
1360.204,-210.0,
1360.219,-210.0,
1360.234,-210.0,
1360.249,-210.0,
1360.264,-94.61,
1360.279,-210.0,
1360.294,-210.0,
1360.309,-210.0,
1360.324,-88.53,
1360.339,-86.49,
1360.354,-210.0,
1360.369,-91.85,
1360.384,-210.0,
1360.399,-84.62,
1360.414,-85.45,
1360.429,-83.9,
1360.444,-91.76,
1360.459,-88.98,
1360.474,-84.54,
1360.489,-82.89,
1360.504,-88.51,
1360.519,-210.0,
1360.534,-87.29,
1360.549,-84.01,
1360.564,-84.53,
1360.579,-87.36,
1360.594,-87.61,
1360.609,-210.0,
1360.624,-85.09,
1360.639,-84.17,
1360.654,-84.25,
1360.669,-99.88,
1360.684,-85.97,
1360.699,-84.43,
1360.714,-82.97,
1360.729,-87.78,
1360.744,-87.78,
1360.759,-87.58,
1360.774,-84.65,
1360.789,-83.86,
1360.804,-84.91,
1360.819,-91.5,
1360.834,-210.0,
1360.849,-86.68,
1360.864,-86.86,
1360.879,-90.0,
1360.894,-210.0,
1360.909,-89.69,
1360.924,-86.96,
1360.939,-85.44,
1360.954,-210.0,
1360.969,-210.0,
1360.984,-210.0,
1360.999,-90.83,
1361.014,-86.54,
1361.029,-86.53,
1361.044,-210.0,
1361.059,-210.0,
1361.074,-85.37,
1361.089,-84.84,
1361.104,-89.02,
1361.119,-210.0,
1361.134,-88.15,
1361.149,-87.5,
1361.164,-84.22,
1361.179,-86.25,
1361.194,-87.52,
1361.209,-97.83,
1361.224,-83.92,
1361.239,-83.06,
1361.254,-82.87,
1361.269,-87.2,
1361.284,-85.41,
1361.299,-83.3,
1361.314,-83.11,
1361.329,-85.98,
1361.344,-86.94,
1361.359,-87.63,
1361.374,-85.82,
1361.389,-83.24,
1361.404,-85.49,
1361.419,-89.99,
1361.434,-94.95,
1361.449,-84.61,
1361.464,-82.75,
1361.479,-83.59,
1361.494,-89.08,
1361.509,-84.23,
1361.524,-83.81,
1361.539,-82.98,
1361.554,-85.63,
1361.569,-86.81,
1361.584,-88.25,
1361.599,-84.04,
1361.614,-82.17,
1361.629,-83.11,
1361.644,-88.01,
1361.659,-89.05,
1361.674,-83.36,
1361.689,-84.61,
1361.704,-85.72,
1361.719,-90.0,
1361.734,-87.76,
1361.749,-87.24,
1361.764,-84.11,
1361.779,-86.81,
1361.794,-88.63,
1361.809,-210.0,
1361.824,-85.54,
1361.839,-83.46,
1361.854,-84.76,
1361.869,-90.12,
1361.884,-86.31,
1361.899,-84.25,
1361.914,-84.33,
1361.929,-84.8,
1361.944,-88.12,
1361.959,-88.83,
1361.974,-84.54,
1361.989,-82.32,
1362.004,-83.74,
1362.019,-89.99,
1362.034,-210.0,
1362.049,-84.67,
1362.064,-84.9,
1362.079,-87.17,
1362.094,-210.0,
1362.109,-89.96,
1362.124,-90.12,
1362.139,-86.4,
1362.154,-90.25,
1362.169,-210.0,
1362.184,-210.0,
1362.199,-95.72,
1362.214,-85.93,
1362.229,-210.0,
1362.244,-210.0,
1362.259,-210.0,
1362.274,-210.0,
1362.289,-210.0,
1362.304,-210.0,
1362.319,-210.0,
1362.334,-210.0,
1362.349,-210.0,
1362.364,-89.01,
1362.379,-210.0,
1362.394,-210.0,
1362.409,-210.0,
1362.424,-210.0,
1362.439,-210.0,
1362.454,-210.0,
1362.469,-210.0,
1362.484,-210.0,
1362.499,-210.0,
1362.514,-210.0,
1362.529,-210.0,
1362.544,-210.0,
1362.559,-210.0,
1362.574,-210.0,
1362.589,-210.0,
1362.604,-210.0,
1362.619,-210.0,
1362.634,-210.0,
1362.649,-210.0,
1362.664,-210.0,
1362.679,-210.0,
1362.694,-210.0,
1362.709,-210.0,
1362.724,-210.0,
1362.739,-210.0,
1362.754,-210.0,
1362.769,-210.0,
1362.784,-210.0,
1362.799,-210.0,
1362.814,-90.4,
1362.829,-210.0,
1362.844,-210.0,
1362.859,-210.0,
1362.874,-210.0,
1362.889,-210.0,
1362.904,-210.0,
1362.919,-210.0,
1362.934,-210.0,
1362.949,-210.0,
1362.964,-87.8,
1362.979,-210.0,
1362.994,-210.0,
1363.009,-210.0,
1363.024,-210.0,
1363.039,-93.11,
1363.054,-210.0,
1363.069,-210.0,
1363.084,-210.0,
1363.099,-210.0,
1363.114,-210.0,
1363.129,-87.34,
1363.144,-210.0,
1363.159,-210.0,
1363.174,-96.05,
1363.189,-83.38,
1363.204,-87.6,
1363.219,-210.0,
1363.234,-210.0,
1363.249,-85.7,
1363.264,-85.13,
1363.279,-83.73,
1363.294,-86.7,
1363.309,-96.63,
1363.324,-91.27,
1363.339,-84.71,
1363.354,-84.12,
1363.369,-92.12,
1363.384,-95.58,
1363.399,-86.16,
1363.414,-84.3,
1363.429,-91.17,
1363.444,-90.26,
1363.459,-210.0,
1363.474,-87.16,
1363.489,-85.02,
1363.504,-82.41,
1363.519,-87.25,
1363.534,-88.94,
1363.549,-86.42,
1363.564,-82.45,
1363.579,-83.92,
1363.594,-86.86,
1363.609,-89.81,
1363.624,-84.86,
1363.639,-84.7,
1363.654,-85.42,
1363.669,-87.57,
1363.684,-210.0,
1363.699,-88.54,
1363.714,-83.97,
1363.729,-81.9,
1363.744,-85.85,
1363.759,-89.22,
1363.774,-88.81,
1363.789,-83.58,
1363.804,-86.59,
1363.819,-86.47,
1363.834,-88.27,
1363.849,-85.05,
1363.864,-84.81,
1363.879,-83.59,
1363.894,-87.81,
1363.909,-210.0,
1363.924,-96.12,
1363.939,-83.82,
1363.954,-83.91,
1363.969,-210.0,
1363.984,-89.03,
1363.999,-86.6,
1364.014,-83.38,
1364.029,-85.1,
1364.044,-86.27,
1364.059,-102.73,
1364.074,-86.2,
1364.089,-83.75,
1364.104,-81.91,
1364.119,-86.47,
1364.134,-95.66,
1364.149,-88.52,
1364.164,-83.67,
1364.179,-84.01,
1364.194,-87.29,
1364.209,-89.56,
1364.224,-87.17,
1364.239,-85.38,
1364.254,-84.78,
1364.269,-86.21,
1364.284,-210.0,
1364.299,-88.0,
1364.314,-83.48,
1364.329,-82.78,
1364.344,-87.24,
1364.359,-87.4,
1364.374,-86.3,
1364.389,-83.11,
1364.404,-84.8,
1364.419,-84.57,
1364.434,-85.36,
1364.449,-84.26,
1364.464,-83.43,
1364.479,-82.39,
1364.494,-85.33,
1364.509,-210.0,
1364.524,-88.04,
1364.539,-83.15,
1364.554,-84.05,
1364.569,-89.41,
1364.584,-89.5,
1364.599,-93.54,
1364.614,-86.0,
1364.629,-87.38,
1364.644,-85.9,
1364.659,-210.0,
1364.674,-88.53,
1364.689,-85.12,
1364.704,-83.76,
1364.719,-92.34,
1364.734,-210.0,
1364.749,-210.0,
1364.764,-86.16,
1364.779,-85.36,
1364.794,-87.49,
1364.809,-91.39,
1364.824,-210.0,
1364.839,-90.27,
1364.854,-88.08,
1364.869,-91.58,
1364.884,-210.0,
1364.899,-210.0,
1364.914,-85.17,
1364.929,-83.96,
1364.944,-94.76,
1364.959,-210.0,
1364.974,-91.79,
1364.989,-85.57,
1365.004,-86.34,
1365.019,-86.67,
1365.034,-210.0,
1365.049,-90.27,
1365.064,-85.1,
1365.079,-83.79,
1365.094,-92.15,
1365.109,-210.0,
1365.124,-94.82,
1365.139,-86.0,
1365.154,-86.16,
1365.169,-92.09,
1365.184,-210.0,
1365.199,-210.0,
1365.214,-100.0,
1365.229,-89.53,
1365.245,-88.4,
1365.259,-210.0,
1365.274,-210.0,
1365.289,-88.39,
1365.304,-88.56,
1365.319,-210.0,
1365.334,-210.0,
1365.349,-210.0,
1365.365,-210.0,
1365.38,-210.0,
1365.395,-210.0,
1365.409,-210.0,
1365.424,-210.0,
1365.439,-92.71,
1365.454,-89.25,
1365.469,-210.0,
1365.484,-210.0,
1365.5,-210.0,
1365.515,-89.15,
1365.53,-88.07,
1365.544,-210.0,
1365.559,-210.0,
1365.574,-210.0,
1365.589,-210.0,
1365.604,-89.27,
1365.62,-89.98,
1365.635,-210.0,
1365.65,-210.0,
1365.665,-88.42,
1365.68,-87.52,
1365.694,-210.0,
1365.709,-210.0,
1365.724,-210.0,
1365.74,-88.83,
1365.755,-85.99,
1365.77,-88.95,
1365.785,-210.0,
1365.8,-210.0,
1365.815,-89.17,
1365.83,-86.97,
1365.844,-88.76,
1365.859,-210.0,
1365.875,-210.0,
1365.89,-86.3,
1365.905,-85.41,
1365.92,-210.0,
1365.935,-210.0,
1365.95,-210.0,
1365.965,-210.0,
1365.979,-90.71,
1365.995,-95.29,
1366.01,-210.0,
1366.025,-210.0,
1366.04,-95.25,
1366.055,-90.19,
1366.07,-210.0,
1366.085,-210.0,
1366.1,-210.0,
1366.115,-91.69,
1366.13,-88.92,
1366.145,-210.0,
1366.16,-210.0,
1366.175,-210.0,
1366.19,-91.31,
1366.205,-86.77,
1366.22,-90.69,
1366.235,-210.0,
1366.25,-210.0,
1366.265,-88.67,
1366.28,-88.93,
1366.295,-210.0,
1366.31,-210.0,
1366.325,-210.0,
1366.34,-107.96,
1366.355,-88.38,
1366.37,-91.38,
1366.385,-210.0,
1366.4,-210.0,
1366.415,-210.0,
1366.43,-94.33,
1366.445,-210.0,
1366.46,-210.0,
1366.475,-210.0,
1366.49,-91.56,
1366.505,-88.26,
1366.52,-93.74,
1366.535,-210.0,
1366.55,-210.0,
1366.565,-90.4,
1366.58,-84.75,
1366.595,-86.27,
1366.61,-210.0,
1366.625,-210.0,
1366.64,-86.78,
1366.655,-87.36,
1366.67,-104.98,
1366.685,-210.0,
1366.7,-210.0,
1366.715,-90.43,
1366.73,-86.0,
1366.745,-89.5,
1366.76,-210.0,
1366.775,-210.0,
1366.79,-89.47,
1366.805,-86.36,
1366.82,-94.63,
1366.835,-210.0,
1366.85,-210.0,
1366.865,-92.98,
1366.88,-87.65,
1366.895,-210.0,
1366.91,-210.0,
1366.925,-210.0,
1366.94,-91.65,
1366.955,-86.11,
1366.97,-87.6,
1366.985,-210.0,
1367.0,-210.0,
1367.015,-88.86,
1367.03,-86.7,
1367.045,-92.46,
1367.06,-210.0,
1367.075,-210.0,
1367.09,-87.71,
1367.105,-85.2,
1367.12,-88.52,
1367.135,-99.37,
1367.15,-210.0,
1367.165,-88.56,
1367.18,-84.46,
1367.195,-87.97,
1367.21,-210.0,
1367.225,-91.52,
1367.24,-87.49,
1367.255,-87.65,
1367.27,-90.62,
1367.285,-102.41,
1367.3,-100.97,
1367.315,-86.36,
1367.33,-83.15,
1367.345,-84.57,
1367.36,-92.92,
1367.375,-210.0,
1367.39,-86.56,
1367.405,-84.56,
1367.42,-88.73,
1367.435,-210.0,
1367.45,-91.0,
1367.465,-92.75,
1367.48,-87.84,
1367.495,-93.23,
1367.51,-210.0,
1367.525,-210.0,
1367.54,-210.0,
1367.555,-87.25,
1367.57,-117.36,
1367.585,-210.0,
1367.6,-210.0,
1367.615,-89.16,
1367.63,-89.38,
1367.645,-210.0,
1367.66,-210.0,
1367.675,-210.0,
1367.69,-210.0,
1367.705,-87.04,
1367.72,-210.0,
1367.735,-210.0,
1367.75,-210.0,
1367.765,-97.31,
1367.78,-90.09,
1367.795,-210.0,
1367.81,-210.0,
1367.825,-210.0,
1367.84,-210.0,
1367.855,-210.0,
1367.87,-210.0,
1367.885,-210.0,
1367.9,-210.0,
1367.915,-210.0,
1367.93,-210.0,
1367.945,-210.0,
1367.96,-210.0,
1367.975,-210.0,
1367.99,-210.0,
1368.005,-210.0,
1368.02,-210.0,
1368.035,-210.0,
1368.05,-210.0,
1368.065,-210.0,
1368.08,-96.41,
1368.095,-210.0,
1368.11,-210.0,
1368.125,-210.0,
1368.14,-210.0,
1368.155,-210.0,
1368.17,-210.0,
1368.185,-210.0,
1368.2,-210.0,
1368.215,-210.0,
1368.23,-210.0,
1368.245,-210.0,
1368.26,-210.0,
1368.275,-210.0,
1368.29,-210.0,
1368.305,-210.0,
1368.32,-210.0,
1368.335,-210.0,
1368.35,-210.0,
1368.365,-210.0,
1368.38,-210.0,
1368.395,-210.0,
1368.41,-210.0,
1368.425,-210.0,
1368.44,-210.0,
1368.455,-210.0,
1368.47,-210.0,
1368.485,-210.0,
1368.5,-210.0,
1368.515,-210.0,
1368.53,-210.0,
1368.545,-210.0,
1368.56,-210.0,
1368.575,-210.0,
1368.59,-210.0,
1368.605,-210.0,
1368.62,-210.0,
1368.635,-210.0,
1368.65,-210.0,
1368.665,-210.0,
1368.68,-210.0,
1368.695,-210.0,
1368.71,-210.0,
1368.725,-210.0,
1368.74,-210.0,
1368.755,-210.0,
1368.77,-210.0,
1368.785,-210.0,
1368.8,-210.0,
1368.815,-210.0,
1368.83,-210.0,
1368.845,-210.0,
1368.86,-210.0,
1368.875,-210.0,
1368.89,-89.0,
1368.905,-85.56,
1368.92,-102.93,
1368.935,-210.0,
1368.95,-210.0,
1368.965,-88.56,
1368.98,-91.82,
1368.995,-210.0,
1369.01,-210.0,
1369.025,-210.0,
1369.04,-89.87,
1369.055,-84.45,
1369.07,-88.61,
1369.085,-210.0,
1369.1,-95.05,
1369.115,-84.39,
1369.13,-84.21,
1369.145,-86.05,
1369.16,-90.51,
1369.175,-87.59,
1369.19,-87.08,
1369.205,-85.95,
1369.22,-87.44,
1369.235,-210.0,
1369.25,-210.0,
1369.265,-85.68,
1369.28,-83.51,
1369.295,-93.77,
1369.31,-210.0,
1369.325,-210.0,
1369.34,-86.45,
1369.355,-85.34,
1369.37,-86.19,
1369.385,-90.26,
1369.4,-86.38,
1369.415,-84.87,
1369.43,-82.43,
1369.445,-84.33,
1369.46,-88.99,
1369.475,-87.39,
1369.49,-82.36,
1369.505,-81.99,
1369.52,-84.5,
1369.535,-86.85,
1369.55,-87.98,
1369.565,-86.1,
1369.58,-86.36,
1369.595,-88.56,
1369.61,-210.0,
1369.625,-210.0,
1369.64,-87.13,
1369.655,-84.01,
1369.67,-91.92,
1369.685,-210.0,
1369.7,-210.0,
1369.715,-85.18,
1369.73,-84.71,
1369.745,-85.63,
1369.76,-86.75,
1369.775,-85.3,
1369.79,-83.6,
1369.805,-83.01,
1369.82,-84.62,
1369.835,-92.93,
1369.85,-95.42,
1369.865,-84.14,
1369.88,-84.02,
1369.895,-87.79,
1369.91,-99.62,
1369.925,-90.99,
1369.94,-85.34,
1369.955,-84.72,
1369.97,-87.07,
1369.985,-95.52,
1370.0,-88.78,
