wavelength_axis,light_level,mean_wavelength,total_power
1250.0,-210.0,1300.547,-32.421913893978754
1250.015,-210.0,,
1250.03,-69.39,,
1250.045,-71.32,,
1250.06,-210.0,,
1250.075,-210.0,,
1250.09,-210.0,,
1250.105,-210.0,,
1250.12,-210.0,,
1250.135,-210.0,,
1250.15,-210.0,,
1250.165,-210.0,,
1250.18,-210.0,,
1250.195,-210.0,,
1250.21,-210.0,,
1250.225,-210.0,,
1250.24,-210.0,,
1250.255,-210.0,,
1250.27,-210.0,,
1250.285,-210.0,,
1250.3,-210.0,,
1250.315,-210.0,,
1250.33,-210.0,,
1250.345,-210.0,,
1250.36,-210.0,,
1250.375,-210.0,,
1250.39,-210.0,,
1250.405,-210.0,,
1250.42,-210.0,,
1250.435,-210.0,,
1250.45,-210.0,,
1250.465,-210.0,,
1250.48,-210.0,,
1250.495,-210.0,,
1250.51,-210.0,,
1250.525,-210.0,,
1250.54,-210.0,,
1250.555,-210.0,,
1250.57,-210.0,,
1250.585,-210.0,,
1250.6,-69.61,,
1250.615,-68.32,,
1250.63,-72.32,,
1250.645,-210.0,,
1250.66,-210.0,,
1250.675,-210.0,,
1250.69,-210.0,,
1250.705,-210.0,,
1250.72,-210.0,,
1250.735,-210.0,,
1250.75,-210.0,,
1250.765,-78.92,,
1250.78,-210.0,,
1250.795,-210.0,,
1250.81,-210.0,,
1250.825,-210.0,,
1250.84,-210.0,,
1250.855,-210.0,,
1250.87,-210.0,,
1250.885,-210.0,,
1250.9,-210.0,,
1250.915,-210.0,,
1250.93,-210.0,,
1250.945,-210.0,,
1250.96,-210.0,,
1250.975,-210.0,,
1250.99,-210.0,,
1251.005,-210.0,,
1251.02,-210.0,,
1251.035,-210.0,,
1251.05,-210.0,,
1251.065,-210.0,,
1251.08,-210.0,,
1251.095,-210.0,,
1251.11,-78.54,,
1251.125,-210.0,,
1251.14,-210.0,,
1251.155,-210.0,,
1251.17,-210.0,,
1251.185,-71.9,,
1251.2,-70.13,,
1251.215,-210.0,,
1251.23,-210.0,,
1251.245,-72.23,,
1251.26,-68.71,,
1251.275,-68.53,,
1251.29,-72.28,,
1251.305,-210.0,,
1251.32,-210.0,,
1251.335,-79.03,,
1251.35,-69.22,,
1251.365,-68.9,,
1251.38,-74.04,,
1251.395,-73.91,,
1251.41,-73.44,,
1251.425,-69.06,,
1251.44,-68.23,,
1251.455,-210.0,,
1251.47,-210.0,,
1251.485,-75.17,,
1251.5,-72.19,,
1251.515,-76.6,,
1251.53,-74.11,,
1251.545,-71.28,,
1251.56,-210.0,,
1251.575,-72.76,,
1251.59,-70.16,,
1251.605,-74.04,,
1251.62,-210.0,,
1251.635,-210.0,,
1251.65,-210.0,,
1251.665,-77.13,,
1251.68,-72.44,,
1251.695,-70.07,,
1251.71,-79.63,,
1251.725,-210.0,,
1251.74,-72.08,,
1251.755,-71.03,,
1251.77,-70.58,,
1251.785,-210.0,,
1251.8,-210.0,,
1251.815,-210.0,,
1251.83,-70.85,,
1251.845,-68.93,,
1251.86,-69.45,,
1251.875,-72.17,,
1251.89,-73.02,,
1251.905,-66.2,,
1251.92,-66.42,,
1251.935,-65.48,,
1251.95,-70.91,,
1251.965,-69.82,,
1251.98,-68.52,,
1251.995,-64.94,,
1252.01,-65.8,,
1252.025,-68.18,,
1252.04,-210.0,,
1252.055,-80.18,,
1252.07,-66.59,,
1252.085,-68.65,,
1252.1,-68.44,,
1252.115,-210.0,,
1252.13,-71.2,,
1252.145,-69.19,,
1252.16,-65.09,,
1252.175,-65.71,,
1252.19,-69.75,,
1252.205,-210.0,,
1252.22,-76.76,,
1252.235,-67.12,,
1252.25,-70.19,,
1252.265,-72.79,,
1252.28,-210.0,,
1252.295,-210.0,,
1252.31,-210.0,,
1252.325,-68.06,,
1252.34,-72.31,,
1252.355,-210.0,,
1252.37,-210.0,,
1252.385,-210.0,,
1252.4,-210.0,,
1252.415,-76.91,,
1252.43,-210.0,,
1252.445,-210.0,,
1252.46,-210.0,,
1252.475,-210.0,,
1252.49,-68.72,,
1252.505,-210.0,,
1252.52,-81.4,,
1252.535,-78.71,,
1252.55,-70.84,,
1252.565,-69.91,,
1252.58,-69.99,,
1252.595,-72.05,,
1252.61,-210.0,,
1252.625,-68.98,,
1252.64,-68.25,,
1252.655,-65.92,,
1252.67,-68.46,,
1252.685,-69.17,,
1252.7,-72.45,,
1252.715,-68.5,,
1252.73,-65.56,,
1252.745,-69.26,,
1252.76,-68.7,,
1252.775,-73.09,,
1252.79,-67.19,,
1252.805,-69.66,,
1252.82,-70.23,,
1252.835,-76.7,,
1252.85,-73.86,,
1252.865,-73.33,,
1252.88,-67.36,,
1252.895,-67.33,,
1252.91,-75.09,,
1252.925,-210.0,,
1252.94,-210.0,,
1252.955,-71.71,,
1252.97,-79.51,,
1252.985,-210.0,,
1253.0,-210.0,,
1253.015,-210.0,,
1253.03,-210.0,,
1253.045,-210.0,,
1253.06,-210.0,,
1253.075,-210.0,,
1253.09,-210.0,,
1253.105,-210.0,,
1253.12,-210.0,,
1253.135,-210.0,,
1253.15,-210.0,,
1253.165,-210.0,,
1253.18,-210.0,,
1253.195,-210.0,,
1253.21,-81.03,,
1253.225,-210.0,,
1253.24,-210.0,,
1253.255,-210.0,,
1253.271,-210.0,,
1253.285,-69.9,,
1253.3,-210.0,,
1253.315,-210.0,,
1253.33,-210.0,,
1253.345,-70.94,,
1253.36,-70.64,,
1253.375,-71.79,,
1253.391,-210.0,,
1253.406,-210.0,,
1253.421,-210.0,,
1253.435,-210.0,,
1253.45,-210.0,,
1253.465,-210.0,,
1253.48,-210.0,,
1253.495,-210.0,,
1253.51,-210.0,,
1253.526,-210.0,,
1253.541,-210.0,,
1253.556,-210.0,,
1253.571,-210.0,,
1253.585,-77.4,,
1253.6,-86.17,,
1253.615,-210.0,,
1253.63,-210.0,,
1253.646,-210.0,,
1253.661,-210.0,,
1253.676,-210.0,,
1253.691,-210.0,,
1253.706,-210.0,,
1253.72,-210.0,,
1253.735,-210.0,,
1253.75,-210.0,,
1253.766,-210.0,,
1253.781,-210.0,,
1253.796,-210.0,,
1253.811,-210.0,,
1253.826,-210.0,,
1253.841,-210.0,,
1253.856,-210.0,,
1253.87,-210.0,,
1253.885,-210.0,,
1253.901,-210.0,,
1253.916,-210.0,,
1253.931,-210.0,,
1253.946,-210.0,,
1253.961,-210.0,,
1253.976,-210.0,,
1253.991,-210.0,,
1254.005,-210.0,,
1254.021,-210.0,,
1254.036,-210.0,,
1254.051,-210.0,,
1254.066,-210.0,,
1254.081,-210.0,,
1254.096,-210.0,,
1254.111,-210.0,,
1254.126,-210.0,,
1254.141,-210.0,,
1254.156,-210.0,,
1254.171,-210.0,,
1254.186,-210.0,,
1254.201,-210.0,,
1254.216,-210.0,,
1254.231,-210.0,,
1254.246,-210.0,,
1254.261,-210.0,,
1254.276,-210.0,,
1254.291,-210.0,,
1254.306,-210.0,,
1254.321,-77.19,,
1254.336,-210.0,,
1254.351,-210.0,,
1254.366,-210.0,,
1254.381,-210.0,,
1254.396,-210.0,,
1254.411,-79.81,,
1254.426,-210.0,,
1254.441,-210.0,,
1254.456,-210.0,,
1254.471,-69.19,,
1254.486,-68.52,,
1254.501,-84.99,,
1254.516,-210.0,,
1254.531,-210.0,,
1254.546,-101.0,,
1254.561,-210.0,,
1254.576,-210.0,,
1254.591,-210.0,,
1254.606,-210.0,,
1254.621,-210.0,,
1254.636,-210.0,,
1254.651,-210.0,,
1254.666,-210.0,,
1254.681,-210.0,,
1254.696,-210.0,,
1254.711,-210.0,,
1254.726,-210.0,,
1254.741,-210.0,,
1254.756,-210.0,,
1254.771,-210.0,,
1254.786,-210.0,,
1254.801,-210.0,,
1254.816,-210.0,,
1254.831,-210.0,,
1254.846,-210.0,,
1254.861,-210.0,,
1254.876,-210.0,,
1254.891,-210.0,,
1254.906,-210.0,,
1254.921,-210.0,,
1254.936,-210.0,,
1254.951,-210.0,,
1254.966,-210.0,,
1254.981,-210.0,,
1254.996,-210.0,,
1255.011,-210.0,,
1255.026,-210.0,,
1255.041,-68.41,,
1255.056,-76.23,,
1255.071,-210.0,,
1255.086,-210.0,,
1255.101,-75.41,,
1255.116,-68.3,,
1255.131,-70.33,,
1255.146,-73.09,,
1255.161,-210.0,,
1255.176,-80.84,,
1255.191,-69.23,,
1255.206,-66.2,,
1255.221,-70.23,,
1255.236,-69.88,,
1255.251,-72.33,,
1255.266,-70.44,,
1255.281,-66.99,,
1255.296,-71.17,,
1255.311,-70.91,,
1255.326,-210.0,,
1255.341,-210.0,,
1255.356,-74.42,,
1255.371,-73.27,,
1255.386,-210.0,,
1255.401,-210.0,,
1255.416,-210.0,,
1255.431,-210.0,,
1255.446,-74.07,,
1255.461,-210.0,,
1255.476,-210.0,,
1255.491,-210.0,,
1255.506,-210.0,,
1255.521,-210.0,,
1255.536,-210.0,,
1255.551,-210.0,,
1255.566,-210.0,,
1255.581,-210.0,,
1255.596,-78.96,,
1255.611,-73.69,,
1255.626,-210.0,,
1255.641,-210.0,,
1255.656,-210.0,,
1255.671,-73.74,,
1255.686,-77.75,,
1255.701,-210.0,,
1255.716,-210.0,,
1255.731,-210.0,,
1255.746,-67.31,,
1255.761,-65.43,,
1255.776,-66.24,,
1255.791,-69.14,,
1255.806,-68.06,,
1255.821,-67.39,,
1255.836,-66.99,,
1255.851,-65.75,,
1255.866,-69.92,,
1255.881,-70.14,,
1255.896,-72.64,,
1255.911,-66.81,,
1255.926,-67.41,,
1255.941,-70.49,,
1255.956,-71.07,,
1255.971,-71.19,,
1255.986,-71.65,,
1256.001,-71.1,,
1256.016,-78.57,,
1256.031,-210.0,,
1256.046,-210.0,,
1256.061,-210.0,,
1256.076,-210.0,,
1256.091,-210.0,,
1256.106,-210.0,,
1256.121,-210.0,,
1256.136,-210.0,,
1256.151,-210.0,,
1256.166,-210.0,,
1256.181,-210.0,,
1256.196,-210.0,,
1256.211,-210.0,,
1256.226,-210.0,,
1256.241,-210.0,,
1256.256,-210.0,,
1256.271,-210.0,,
1256.286,-210.0,,
1256.301,-210.0,,
1256.316,-210.0,,
1256.331,-210.0,,
1256.346,-210.0,,
1256.361,-210.0,,
1256.376,-210.0,,
1256.391,-210.0,,
1256.406,-210.0,,
1256.421,-210.0,,
1256.436,-210.0,,
1256.451,-210.0,,
1256.466,-71.15,,
1256.481,-210.0,,
1256.496,-72.31,,
1256.511,-81.41,,
1256.526,-79.28,,
1256.541,-70.43,,
1256.556,-70.6,,
1256.571,-76.19,,
1256.586,-210.0,,
1256.601,-74.0,,
1256.616,-210.0,,
1256.631,-69.45,,
1256.646,-71.09,,
1256.661,-72.27,,
1256.676,-72.79,,
1256.691,-70.31,,
1256.706,-67.39,,
1256.721,-72.17,,
1256.736,-72.82,,
1256.751,-210.0,,
1256.766,-210.0,,
1256.781,-210.0,,
1256.796,-71.25,,
1256.811,-210.0,,
1256.826,-210.0,,
1256.841,-73.08,,
1256.856,-74.2,,
1256.871,-69.99,,
1256.886,-210.0,,
1256.901,-74.24,,
1256.916,-210.0,,
1256.931,-72.22,,
1256.946,-68.97,,
1256.961,-210.0,,
1256.976,-210.0,,
1256.991,-210.0,,
1257.006,-77.77,,
1257.021,-71.77,,
1257.036,-67.93,,
1257.051,-70.65,,
1257.066,-71.32,,
1257.081,-67.48,,
1257.096,-65.5,,
1257.111,-65.52,,
1257.126,-66.63,,
1257.141,-68.65,,
1257.156,-68.74,,
1257.171,-67.8,,
1257.186,-68.94,,
1257.201,-70.83,,
1257.216,-76.35,,
1257.231,-210.0,,
1257.246,-69.44,,
1257.261,-69.41,,
1257.276,-72.98,,
1257.291,-210.0,,
1257.306,-210.0,,
1257.321,-71.19,,
1257.336,-67.16,,
1257.351,-70.09,,
1257.366,-210.0,,
1257.381,-210.0,,
1257.396,-210.0,,
1257.411,-71.03,,
1257.426,-70.98,,
1257.441,-210.0,,
1257.456,-210.0,,
1257.471,-210.0,,
1257.486,-74.12,,
1257.501,-78.21,,
1257.516,-210.0,,
1257.531,-210.0,,
1257.546,-210.0,,
1257.561,-210.0,,
1257.576,-70.51,,
1257.591,-85.38,,
1257.606,-210.0,,
1257.621,-210.0,,
1257.636,-210.0,,
1257.651,-210.0,,
1257.666,-210.0,,
1257.681,-210.0,,
1257.696,-210.0,,
1257.711,-210.0,,
1257.726,-210.0,,
1257.741,-74.95,,
1257.756,-210.0,,
1257.771,-210.0,,
1257.786,-72.17,,
1257.801,-71.85,,
1257.816,-69.33,,
1257.831,-73.49,,
1257.846,-210.0,,
1257.861,-210.0,,
1257.876,-210.0,,
1257.891,-82.84,,
1257.906,-210.0,,
1257.921,-210.0,,
1257.936,-210.0,,
1257.951,-210.0,,
1257.966,-210.0,,
1257.981,-210.0,,
1257.996,-210.0,,
1258.011,-210.0,,
1258.026,-210.0,,
1258.041,-210.0,,
1258.056,-75.43,,
1258.071,-210.0,,
1258.086,-210.0,,
1258.101,-210.0,,
1258.116,-210.0,,
1258.131,-210.0,,
1258.146,-210.0,,
1258.161,-210.0,,
1258.176,-210.0,,
1258.191,-82.04,,
1258.206,-71.33,,
1258.221,-75.79,,
1258.236,-210.0,,
1258.251,-72.17,,
1258.266,-73.19,,
1258.281,-68.68,,
1258.296,-72.43,,
1258.311,-69.05,,
1258.326,-71.78,,
1258.341,-71.99,,
1258.356,-69.8,,
1258.371,-68.98,,
1258.386,-69.59,,
1258.401,-69.7,,
1258.416,-68.65,,
1258.431,-71.56,,
1258.446,-68.31,,
1258.461,-72.73,,
1258.476,-73.03,,
1258.491,-73.92,,
1258.506,-69.35,,
1258.521,-68.95,,
1258.536,-72.9,,
1258.551,-69.31,,
1258.566,-73.48,,
1258.581,-70.54,,
1258.596,-68.23,,
1258.611,-69.24,,
1258.626,-71.82,,
1258.641,-72.76,,
1258.656,-68.43,,
1258.671,-74.8,,
1258.686,-69.86,,
1258.701,-80.59,,
1258.716,-84.56,,
1258.731,-210.0,,
1258.746,-77.95,,
1258.761,-70.38,,
1258.776,-210.0,,
1258.791,-210.0,,
1258.806,-210.0,,
1258.821,-71.74,,
1258.836,-71.89,,
1258.851,-70.79,,
1258.866,-210.0,,
1258.881,-210.0,,
1258.896,-69.2,,
1258.911,-71.03,,
1258.926,-72.62,,
1258.941,-210.0,,
1258.956,-78.64,,
1258.971,-210.0,,
1258.986,-70.01,,
1259.001,-72.44,,
1259.016,-210.0,,
1259.031,-72.14,,
1259.046,-71.09,,
1259.061,-68.51,,
1259.076,-70.9,,
1259.091,-68.43,,
1259.106,-72.9,,
1259.121,-69.98,,
1259.136,-67.62,,
1259.151,-70.0,,
1259.166,-68.33,,
1259.181,-69.82,,
1259.196,-68.11,,
1259.211,-70.8,,
1259.226,-67.59,,
1259.241,-69.43,,
1259.256,-73.17,,
1259.271,-73.42,,
1259.286,-72.6,,
1259.301,-68.6,,
1259.316,-78.97,,
1259.331,-70.76,,
1259.346,-72.28,,
1259.361,-68.79,,
1259.376,-69.5,,
1259.391,-66.88,,
1259.406,-67.59,,
1259.421,-68.63,,
1259.436,-67.19,,
1259.451,-72.27,,
1259.466,-68.11,,
1259.481,-71.07,,
1259.496,-67.87,,
1259.511,-75.77,,
1259.526,-71.41,,
1259.541,-69.53,,
1259.556,-70.0,,
1259.571,-66.78,,
1259.586,-68.13,,
1259.601,-69.67,,
1259.616,-70.18,,
1259.631,-65.9,,
1259.646,-67.09,,
1259.661,-66.8,,
1259.676,-65.86,,
1259.691,-67.45,,
1259.706,-67.7,,
1259.721,-66.25,,
1259.736,-65.93,,
1259.751,-69.27,,
1259.766,-69.37,,
1259.781,-69.0,,
1259.796,-69.76,,
1259.811,-68.44,,
1259.826,-70.63,,
1259.841,-74.9,,
1259.856,-210.0,,
1259.871,-68.54,,
1259.886,-69.42,,
1259.901,-70.61,,
1259.916,-69.67,,
1259.931,-69.95,,
1259.946,-68.31,,
1259.961,-67.48,,
1259.976,-67.06,,
1259.991,-72.05,,
1260.006,-67.49,,
1260.021,-68.08,,
1260.036,-68.55,,
1260.051,-67.78,,
1260.066,-70.05,,
1260.081,-68.04,,
1260.096,-69.32,,
1260.111,-65.64,,
1260.126,-67.64,,
1260.141,-68.09,,
1260.156,-67.79,,
1260.171,-69.81,,
1260.186,-73.36,,
1260.201,-71.92,,
1260.216,-69.12,,
1260.231,-78.66,,
1260.246,-71.46,,
1260.261,-72.99,,
1260.276,-70.03,,
1260.291,-71.24,,
1260.306,-70.04,,
1260.321,-67.19,,
1260.336,-69.43,,
1260.351,-67.99,,
1260.366,-69.87,,
1260.381,-67.93,,
1260.396,-67.88,,
1260.411,-67.48,,
1260.426,-73.15,,
1260.441,-72.66,,
1260.456,-67.54,,
1260.471,-67.91,,
1260.486,-66.49,,
1260.501,-71.04,,
1260.516,-69.29,,
1260.531,-70.29,,
1260.546,-66.96,,
1260.561,-66.65,,
1260.576,-71.7,,
1260.591,-72.6,,
1260.606,-71.46,,
1260.621,-67.26,,
1260.636,-68.99,,
1260.651,-68.49,,
1260.666,-68.37,,
1260.681,-67.95,,
1260.696,-65.25,,
1260.711,-65.2,,
1260.726,-65.36,,
1260.741,-68.31,,
1260.756,-65.4,,
1260.771,-65.79,,
1260.786,-66.54,,
1260.801,-67.02,,
1260.816,-68.84,,
1260.831,-68.19,,
1260.846,-68.52,,
1260.861,-65.31,,
1260.876,-68.11,,
1260.891,-67.01,,
1260.906,-67.07,,
1260.921,-68.61,,
1260.936,-66.77,,
1260.951,-67.23,,
1260.966,-66.65,,
1260.981,-66.31,,
1260.996,-64.32,,
1261.011,-66.81,,
1261.026,-66.1,,
1261.041,-64.65,,
1261.056,-65.42,,
1261.071,-65.51,,
1261.086,-66.77,,
1261.101,-66.01,,
1261.116,-67.58,,
1261.131,-65.42,,
1261.146,-66.2,,
1261.161,-69.99,,
1261.176,-66.77,,
1261.191,-64.95,,
1261.206,-64.99,,
1261.221,-66.56,,
1261.236,-68.32,,
1261.251,-69.62,,
1261.266,-67.72,,
1261.281,-66.42,,
1261.297,-66.61,,
1261.312,-66.73,,
1261.326,-68.4,,
1261.341,-66.13,,
1261.356,-65.85,,
1261.371,-65.81,,
1261.386,-66.09,,
1261.401,-67.72,,
1261.417,-66.24,,
1261.432,-64.1,,
1261.447,-64.03,,
1261.461,-65.04,,
1261.476,-67.34,,
1261.491,-66.02,,
1261.506,-64.58,,
1261.521,-63.99,,
1261.536,-65.09,,
1261.552,-67.68,,
1261.567,-72.08,,
1261.582,-66.03,,
1261.597,-65.18,,
1261.611,-67.08,,
1261.626,-68.42,,
1261.641,-69.7,,
1261.656,-66.12,,
1261.672,-66.44,,
1261.687,-65.85,,
1261.702,-72.8,,
1261.717,-69.35,,
1261.732,-66.54,,
1261.746,-65.06,,
1261.761,-65.98,,
1261.776,-70.12,,
1261.792,-66.58,,
1261.807,-66.13,,
1261.822,-64.17,,
1261.837,-65.86,,
1261.852,-66.96,,
1261.867,-77.71,,
1261.882,-67.91,,
1261.896,-66.4,,
1261.911,-70.57,,
1261.927,-69.62,,
1261.942,-210.0,,
1261.957,-67.59,,
1261.972,-66.14,,
1261.987,-66.39,,
1262.002,-77.67,,
1262.017,-76.25,,
1262.031,-66.79,,
1262.047,-67.43,,
1262.062,-67.33,,
1262.077,-72.23,,
1262.092,-71.38,,
1262.107,-72.13,,
1262.122,-66.57,,
1262.137,-68.2,,
1262.152,-210.0,,
1262.167,-75.26,,
1262.182,-73.16,,
1262.197,-67.96,,
1262.212,-69.52,,
1262.227,-70.83,,
1262.242,-72.85,,
1262.257,-67.71,,
1262.272,-64.76,,
1262.287,-65.23,,
1262.302,-64.91,,
1262.317,-67.5,,
1262.332,-66.38,,
1262.347,-66.88,,
1262.362,-66.54,,
1262.377,-67.82,,
1262.392,-82.26,,
1262.407,-73.55,,
1262.422,-78.38,,
1262.437,-72.26,,
1262.452,-210.0,,
1262.467,-210.0,,
1262.482,-210.0,,
1262.497,-210.0,,
1262.512,-71.81,,
1262.527,-73.52,,
1262.542,-72.33,,
1262.557,-210.0,,
1262.572,-68.68,,
1262.587,-70.77,,
1262.602,-70.5,,
1262.617,-68.47,,
1262.632,-74.0,,
1262.647,-66.87,,
1262.662,-66.98,,
1262.677,-66.89,,
1262.692,-73.65,,
1262.707,-78.72,,
1262.722,-74.6,,
1262.737,-72.09,,
1262.752,-76.62,,
1262.767,-210.0,,
1262.782,-210.0,,
1262.797,-210.0,,
1262.812,-72.93,,
1262.827,-210.0,,
1262.842,-210.0,,
1262.857,-210.0,,
1262.872,-210.0,,
1262.887,-70.13,,
1262.902,-210.0,,
1262.917,-72.6,,
1262.932,-210.0,,
1262.947,-71.09,,
1262.962,-67.99,,
1262.977,-68.02,,
1262.992,-71.93,,
1263.007,-75.2,,
1263.022,-68.19,,
1263.037,-70.24,,
1263.052,-69.15,,
1263.067,-74.5,,
1263.082,-210.0,,
1263.097,-72.69,,
1263.112,-69.53,,
1263.127,-69.63,,
1263.142,-71.65,,
1263.157,-74.81,,
1263.172,-80.48,,
1263.187,-68.91,,
1263.202,-68.14,,
1263.217,-71.35,,
1263.232,-71.56,,
1263.247,-70.98,,
1263.262,-67.14,,
1263.277,-68.31,,
1263.292,-67.17,,
1263.307,-76.27,,
1263.322,-210.0,,
1263.337,-71.09,,
1263.352,-68.05,,
1263.367,-68.92,,
1263.382,-210.0,,
1263.397,-68.81,,
1263.412,-66.22,,
1263.427,-64.71,,
1263.442,-65.69,,
1263.457,-66.24,,
1263.472,-66.87,,
1263.487,-64.9,,
1263.502,-63.76,,
1263.517,-65.57,,
1263.532,-69.11,,
1263.547,-76.32,,
1263.562,-66.72,,
1263.577,-65.93,,
1263.592,-66.09,,
1263.607,-67.97,,
1263.622,-74.37,,
1263.637,-66.56,,
1263.652,-66.81,,
1263.667,-72.92,,
1263.682,-210.0,,
1263.697,-80.68,,
1263.712,-68.41,,
1263.727,-66.98,,
1263.742,-67.72,,
1263.757,-76.4,,
1263.772,-70.38,,
1263.787,-66.96,,
1263.802,-65.68,,
1263.817,-66.89,,
1263.832,-72.98,,
1263.847,-67.09,,
1263.862,-65.52,,
1263.877,-63.65,,
1263.892,-65.07,,
1263.907,-65.78,,
1263.922,-65.31,,
1263.937,-64.01,,
1263.952,-62.9,,
1263.967,-64.66,,
1263.982,-66.38,,
1263.997,-68.7,,
1264.012,-65.24,,
1264.027,-65.19,,
1264.042,-66.64,,
1264.057,-68.41,,
1264.072,-69.16,,
1264.087,-65.74,,
1264.102,-65.88,,
1264.117,-68.23,,
1264.132,-75.35,,
1264.147,-210.0,,
1264.162,-67.31,,
1264.177,-65.05,,
1264.192,-65.28,,
1264.207,-70.76,,
1264.222,-67.78,,
1264.237,-66.53,,
1264.252,-64.45,,
1264.267,-64.79,,
1264.282,-66.85,,
1264.297,-69.16,,
1264.312,-65.74,,
1264.327,-63.76,,
1264.342,-64.42,,
1264.357,-66.52,,
1264.372,-66.89,,
1264.387,-64.78,,
1264.402,-64.37,,
1264.417,-65.78,,
1264.432,-70.02,,
1264.447,-210.0,,
1264.462,-70.28,,
1264.477,-68.32,,
1264.492,-70.24,,
1264.507,-210.0,,
1264.522,-210.0,,
1264.537,-71.24,,
1264.552,-67.04,,
1264.567,-70.92,,
1264.582,-210.0,,
1264.597,-210.0,,
1264.612,-73.15,,
1264.627,-68.67,,
1264.642,-68.29,,
1264.657,-210.0,,
1264.672,-69.88,,
1264.687,-66.22,,
1264.702,-65.25,,
1264.717,-65.61,,
1264.732,-67.4,,
1264.747,-67.44,,
1264.762,-65.86,,
1264.777,-64.44,,
1264.792,-66.15,,
1264.807,-71.19,,
1264.822,-68.45,,
1264.837,-65.55,,
1264.852,-65.15,,
1264.867,-66.19,,
1264.882,-70.62,,
1264.897,-72.71,,
1264.912,-67.05,,
1264.927,-67.39,,
1264.942,-71.87,,
1264.957,-210.0,,
1264.972,-210.0,,
1264.987,-71.68,,
1265.002,-66.96,,
1265.017,-66.66,,
1265.032,-68.4,,
1265.047,-69.39,,
1265.062,-66.46,,
1265.077,-65.15,,
1265.092,-65.28,,
1265.107,-68.48,,
1265.122,-67.79,,
1265.137,-64.86,,
1265.152,-63.99,,
1265.167,-64.9,,
1265.182,-66.23,,
1265.197,-66.67,,
1265.212,-65.62,,
1265.227,-63.96,,
1265.242,-64.45,,
1265.257,-66.81,,
1265.272,-68.61,,
1265.287,-66.07,,
1265.302,-65.05,,
1265.317,-67.03,,
1265.332,-75.17,,
1265.347,-210.0,,
1265.362,-74.09,,
1265.377,-72.08,,
1265.392,-210.0,,
1265.407,-210.0,,
1265.422,-210.0,,
1265.437,-210.0,,
1265.452,-70.61,,
1265.467,-68.33,,
1265.482,-77.42,,
1265.497,-210.0,,
1265.512,-68.95,,
1265.527,-65.79,,
1265.542,-65.06,,
1265.557,-67.39,,
1265.572,-68.39,,
1265.587,-64.99,,
1265.602,-64.34,,
1265.617,-64.01,,
1265.632,-64.79,,
1265.647,-68.16,,
1265.662,-68.42,,
1265.677,-65.92,,
1265.692,-66.2,,
1265.707,-70.59,,
1265.722,-210.0,,
1265.737,-210.0,,
1265.752,-72.12,,
1265.767,-68.96,,
1265.782,-210.0,,
1265.797,-210.0,,
1265.812,-210.0,,
1265.827,-75.52,,
1265.842,-70.11,,
1265.857,-70.14,,
1265.872,-73.69,,
1265.887,-74.7,,
1265.902,-68.16,,
1265.917,-67.89,,
1265.932,-66.82,,
1265.947,-66.32,,
1265.962,-67.35,,
1265.977,-65.96,,
1265.992,-65.61,,
1266.007,-66.17,,
1266.022,-70.77,,
1266.037,-210.0,,
1266.052,-76.3,,
1266.067,-72.9,,
1266.082,-72.33,,
1266.097,-210.0,,
1266.112,-210.0,,
1266.127,-210.0,,
1266.142,-210.0,,
1266.157,-210.0,,
1266.172,-210.0,,
1266.187,-210.0,,
1266.202,-210.0,,
1266.217,-72.33,,
1266.232,-80.81,,
1266.247,-210.0,,
1266.262,-210.0,,
1266.277,-210.0,,
1266.292,-74.74,,
1266.307,-79.31,,
1266.322,-210.0,,
1266.337,-210.0,,
1266.352,-70.99,,
1266.367,-71.69,,
1266.382,-71.95,,
1266.397,-69.63,,
1266.412,-71.7,,
1266.427,-72.22,,
1266.442,-69.73,,
1266.457,-68.56,,
1266.472,-74.69,,
1266.487,-84.77,,
1266.502,-71.52,,
1266.517,-71.18,,
1266.532,-80.27,,
1266.547,-210.0,,
1266.562,-210.0,,
1266.577,-210.0,,
1266.592,-210.0,,
1266.607,-210.0,,
1266.622,-210.0,,
1266.637,-210.0,,
1266.652,-210.0,,
1266.667,-210.0,,
1266.682,-210.0,,
1266.697,-210.0,,
1266.712,-210.0,,
1266.727,-210.0,,
1266.742,-70.21,,
1266.757,-80.5,,
1266.772,-210.0,,
1266.787,-210.0,,
1266.802,-210.0,,
1266.817,-68.96,,
1266.832,-68.38,,
1266.847,-70.68,,
1266.862,-210.0,,
1266.877,-210.0,,
1266.892,-75.63,,
1266.907,-70.81,,
1266.922,-70.6,,
1266.937,-210.0,,
1266.952,-210.0,,
1266.967,-210.0,,
1266.982,-78.56,,
1266.997,-210.0,,
1267.012,-210.0,,
1267.027,-210.0,,
1267.042,-210.0,,
1267.057,-70.28,,
1267.072,-71.21,,
1267.087,-210.0,,
1267.102,-210.0,,
1267.117,-210.0,,
1267.132,-68.85,,
1267.147,-70.16,,
1267.162,-210.0,,
1267.177,-210.0,,
1267.192,-210.0,,
1267.207,-74.58,,
1267.222,-210.0,,
1267.237,-210.0,,
1267.252,-210.0,,
1267.267,-210.0,,
1267.282,-210.0,,
1267.297,-210.0,,
1267.312,-210.0,,
1267.327,-210.0,,
1267.342,-210.0,,
1267.357,-210.0,,
1267.372,-210.0,,
1267.387,-210.0,,
1267.402,-210.0,,
1267.417,-210.0,,
1267.432,-210.0,,
1267.447,-210.0,,
1267.462,-210.0,,
1267.477,-210.0,,
1267.492,-210.0,,
1267.507,-210.0,,
1267.522,-210.0,,
1267.537,-210.0,,
1267.552,-210.0,,
1267.567,-210.0,,
1267.582,-210.0,,
1267.597,-210.0,,
1267.612,-210.0,,
1267.627,-210.0,,
1267.642,-82.07,,
1267.657,-71.03,,
1267.672,-210.0,,
1267.687,-210.0,,
1267.702,-210.0,,
1267.717,-78.03,,
1267.732,-69.9,,
1267.747,-210.0,,
1267.762,-210.0,,
1267.777,-210.0,,
1267.792,-74.76,,
1267.807,-67.98,,
1267.822,-76.72,,
1267.837,-210.0,,
1267.852,-77.65,,
1267.867,-69.58,,
1267.882,-67.95,,
1267.897,-70.53,,
1267.912,-76.88,,
1267.927,-210.0,,
1267.942,-71.61,,
1267.957,-70.56,,
1267.972,-76.38,,
1267.987,-210.0,,
1268.002,-210.0,,
1268.017,-71.22,,
1268.032,-70.17,,
1268.047,-210.0,,
1268.062,-210.0,,
1268.077,-210.0,,
1268.092,-74.68,,
1268.107,-71.51,,
1268.122,-71.44,,
1268.137,-210.0,,
1268.152,-210.0,,
1268.167,-71.2,,
1268.182,-69.74,,
1268.197,-69.25,,
1268.212,-210.0,,
1268.227,-73.76,,
1268.242,-69.01,,
1268.257,-68.51,,
1268.272,-69.88,,
1268.287,-210.0,,
1268.302,-71.24,,
1268.317,-69.13,,
1268.332,-66.61,,
1268.347,-70.68,,
1268.362,-210.0,,
1268.377,-67.52,,
1268.392,-65.92,,
1268.407,-63.79,,
1268.422,-65.64,,
1268.437,-66.51,,
1268.452,-67.27,,
1268.467,-65.85,,
1268.482,-64.27,,
1268.497,-66.9,,
1268.512,-67.45,,
1268.527,-67.01,,
1268.542,-64.94,,
1268.557,-64.95,,
1268.572,-67.53,,
1268.587,-69.75,,
1268.602,-68.32,,
1268.617,-64.96,,
1268.632,-65.76,,
1268.647,-69.98,,
1268.662,-73.3,,
1268.677,-210.0,,
1268.692,-67.33,,
1268.707,-67.38,,
1268.722,-74.63,,
1268.737,-210.0,,
1268.752,-210.0,,
1268.767,-67.67,,
1268.782,-69.15,,
1268.797,-210.0,,
1268.812,-210.0,,
1268.827,-210.0,,
1268.842,-210.0,,
1268.857,-210.0,,
1268.872,-210.0,,
1268.887,-210.0,,
1268.902,-210.0,,
1268.917,-210.0,,
1268.932,-210.0,,
1268.947,-210.0,,
1268.962,-210.0,,
1268.977,-210.0,,
1268.992,-210.0,,
1269.007,-210.0,,
1269.022,-210.0,,
1269.037,-210.0,,
1269.052,-210.0,,
1269.067,-78.52,,
1269.082,-77.28,,
1269.097,-80.19,,
1269.112,-210.0,,
1269.127,-210.0,,
1269.142,-68.69,,
1269.157,-68.26,,
1269.172,-69.65,,
1269.188,-71.68,,
1269.202,-75.74,,
1269.217,-66.48,,
1269.232,-66.23,,
1269.247,-69.14,,
1269.262,-70.49,,
1269.277,-67.73,,
1269.292,-65.7,,
1269.307,-65.26,,
1269.323,-66.51,,
1269.338,-70.06,,
1269.352,-66.38,,
1269.367,-64.29,,
1269.382,-65.1,,
1269.397,-66.35,,
1269.412,-69.27,,
1269.427,-69.12,,
1269.443,-66.23,,
1269.458,-66.09,,
1269.473,-68.65,,
1269.487,-70.21,,
1269.502,-70.95,,
1269.517,-66.89,,
1269.532,-68.01,,
1269.547,-82.63,,
1269.563,-210.0,,
1269.578,-79.01,,
1269.593,-70.2,,
1269.608,-72.62,,
1269.623,-210.0,,
1269.637,-210.0,,
1269.652,-210.0,,
1269.667,-210.0,,
1269.682,-71.53,,
1269.698,-210.0,,
1269.713,-210.0,,
1269.728,-210.0,,
1269.743,-210.0,,
1269.758,-74.51,,
1269.772,-210.0,,
1269.787,-210.0,,
1269.802,-210.0,,
1269.818,-71.88,,
1269.833,-68.85,,
1269.848,-76.22,,
1269.863,-210.0,,
1269.878,-78.75,,
1269.893,-75.71,,
1269.908,-68.19,,
1269.922,-73.39,,
1269.938,-72.15,,
1269.953,-71.01,,
1269.968,-69.13,,
1269.983,-65.91,,
1269.998,-68.23,,
1270.013,-68.35,,
1270.028,-68.24,,
1270.043,-65.31,,
1270.058,-64.26,,
1270.073,-66.73,,
1270.088,-65.62,,
1270.103,-65.9,,
1270.118,-65.18,,
1270.133,-64.38,,
1270.148,-66.44,,
1270.163,-66.88,,
1270.178,-68.72,,
1270.193,-65.7,,
1270.208,-65.23,,
1270.223,-68.66,,
1270.238,-70.15,,
1270.253,-68.8,,
1270.268,-65.15,,
1270.283,-66.48,,
1270.298,-70.1,,
1270.313,-71.96,,
1270.328,-70.28,,
1270.343,-65.29,,
1270.358,-66.72,,
1270.373,-69.86,,
1270.388,-210.0,,
1270.403,-71.8,,
1270.418,-68.39,,
1270.433,-68.0,,
1270.448,-74.19,,
1270.463,-210.0,,
1270.478,-210.0,,
1270.493,-210.0,,
1270.508,-74.39,,
1270.523,-210.0,,
1270.538,-210.0,,
1270.553,-210.0,,
1270.568,-69.42,,
1270.583,-210.0,,
1270.598,-210.0,,
1270.613,-210.0,,
1270.628,-210.0,,
1270.643,-68.93,,
1270.658,-66.81,,
1270.673,-73.97,,
1270.688,-79.08,,
1270.703,-67.09,,
1270.718,-65.59,,
1270.733,-64.49,,
1270.748,-67.1,,
1270.763,-66.15,,
1270.778,-65.48,,
1270.793,-64.07,,
1270.808,-63.97,,
1270.823,-66.58,,
1270.838,-65.51,,
1270.853,-64.58,,
1270.868,-63.06,,
1270.883,-64.05,,
1270.898,-65.58,,
1270.913,-65.55,,
1270.928,-64.2,,
1270.943,-63.41,,
1270.958,-64.68,,
1270.973,-65.27,,
1270.988,-64.96,,
1271.003,-63.47,,
1271.018,-62.86,,
1271.033,-64.42,,
1271.048,-65.4,,
1271.063,-65.15,,
1271.078,-63.6,,
1271.093,-63.58,,
1271.108,-65.48,,
1271.123,-66.64,,
1271.138,-68.61,,
1271.153,-64.94,,
1271.168,-65.32,,
1271.183,-66.98,,
1271.198,-67.32,,
1271.213,-67.97,,
1271.228,-64.6,,
1271.243,-64.71,,
1271.258,-66.28,,
1271.273,-71.87,,
1271.288,-69.3,,
1271.303,-64.9,,
1271.318,-66.15,,
1271.333,-66.43,,
1271.348,-80.93,,
1271.363,-69.97,,
1271.378,-67.58,,
1271.393,-66.72,,
1271.408,-69.34,,
1271.423,-77.52,,
1271.438,-68.59,,
1271.453,-65.99,,
1271.468,-66.51,,
1271.483,-67.68,,
1271.498,-71.11,,
1271.513,-67.46,,
1271.528,-66.16,,
1271.543,-65.56,,
1271.558,-68.51,,
1271.573,-74.75,,
1271.588,-66.76,,
1271.603,-66.28,,
1271.618,-66.18,,
1271.633,-68.71,,
1271.648,-74.08,,
1271.663,-70.96,,
1271.678,-67.58,,
1271.693,-69.57,,
1271.708,-210.0,,
1271.723,-210.0,,
1271.738,-210.0,,
1271.753,-84.52,,
1271.768,-75.48,,
1271.783,-210.0,,
1271.798,-210.0,,
1271.813,-210.0,,
1271.828,-210.0,,
1271.843,-210.0,,
1271.858,-210.0,,
1271.873,-210.0,,
1271.888,-210.0,,
1271.903,-210.0,,
1271.918,-210.0,,
1271.933,-210.0,,
1271.948,-210.0,,
1271.963,-210.0,,
1271.978,-210.0,,
1271.993,-210.0,,
1272.008,-210.0,,
1272.023,-210.0,,
1272.038,-210.0,,
1272.053,-210.0,,
1272.068,-210.0,,
1272.083,-210.0,,
1272.098,-210.0,,
1272.113,-210.0,,
1272.128,-210.0,,
1272.143,-210.0,,
1272.158,-210.0,,
1272.173,-210.0,,
1272.188,-210.0,,
1272.203,-210.0,,
1272.218,-210.0,,
1272.233,-210.0,,
1272.248,-210.0,,
1272.263,-210.0,,
1272.278,-210.0,,
1272.293,-210.0,,
1272.308,-210.0,,
1272.323,-210.0,,
1272.338,-210.0,,
1272.353,-210.0,,
1272.368,-210.0,,
1272.383,-210.0,,
1272.398,-210.0,,
1272.413,-210.0,,
1272.428,-210.0,,
1272.443,-210.0,,
1272.458,-210.0,,
1272.473,-210.0,,
1272.488,-210.0,,
1272.503,-210.0,,
1272.518,-210.0,,
1272.533,-210.0,,
1272.548,-210.0,,
1272.563,-210.0,,
1272.578,-210.0,,
1272.593,-210.0,,
1272.608,-210.0,,
1272.623,-210.0,,
1272.638,-210.0,,
1272.653,-210.0,,
1272.668,-210.0,,
1272.683,-210.0,,
1272.698,-210.0,,
1272.713,-210.0,,
1272.728,-210.0,,
1272.743,-210.0,,
1272.758,-210.0,,
1272.773,-210.0,,
1272.788,-210.0,,
1272.803,-210.0,,
1272.818,-210.0,,
1272.833,-210.0,,
1272.848,-210.0,,
1272.863,-210.0,,
1272.878,-210.0,,
1272.893,-210.0,,
1272.908,-210.0,,
1272.923,-210.0,,
1272.938,-210.0,,
1272.953,-210.0,,
1272.968,-210.0,,
1272.983,-210.0,,
1272.998,-210.0,,
1273.013,-210.0,,
1273.028,-210.0,,
1273.043,-210.0,,
1273.058,-210.0,,
1273.073,-210.0,,
1273.088,-210.0,,
1273.103,-210.0,,
1273.118,-210.0,,
1273.133,-210.0,,
1273.148,-210.0,,
1273.163,-210.0,,
1273.178,-210.0,,
1273.193,-210.0,,
1273.208,-210.0,,
1273.223,-210.0,,
1273.238,-210.0,,
1273.253,-210.0,,
1273.268,-210.0,,
1273.283,-210.0,,
1273.298,-210.0,,
1273.313,-210.0,,
1273.328,-210.0,,
1273.343,-210.0,,
1273.358,-210.0,,
1273.373,-210.0,,
1273.388,-210.0,,
1273.403,-210.0,,
1273.418,-210.0,,
1273.433,-210.0,,
1273.448,-210.0,,
1273.463,-210.0,,
1273.478,-210.0,,
1273.493,-210.0,,
1273.508,-210.0,,
1273.523,-210.0,,
1273.538,-210.0,,
1273.553,-210.0,,
1273.568,-210.0,,
1273.583,-210.0,,
1273.598,-210.0,,
1273.613,-210.0,,
1273.628,-210.0,,
1273.643,-210.0,,
1273.658,-210.0,,
1273.673,-210.0,,
1273.688,-210.0,,
1273.703,-210.0,,
1273.718,-210.0,,
1273.733,-80.88,,
1273.748,-210.0,,
1273.763,-210.0,,
1273.778,-210.0,,
1273.793,-210.0,,
1273.808,-210.0,,
1273.823,-210.0,,
1273.838,-210.0,,
1273.853,-210.0,,
1273.868,-210.0,,
1273.883,-72.64,,
1273.898,-73.93,,
1273.913,-72.18,,
1273.928,-71.16,,
1273.943,-75.76,,
1273.958,-67.81,,
1273.973,-68.96,,
1273.988,-72.15,,
1274.003,-73.53,,
1274.018,-73.0,,
1274.033,-67.48,,
1274.048,-68.18,,
1274.063,-72.84,,
1274.078,-85.27,,
1274.093,-66.07,,
1274.108,-64.85,,
1274.123,-65.32,,
1274.138,-65.16,,
1274.153,-65.87,,
1274.168,-63.46,,
1274.183,-63.69,,
1274.198,-63.69,,
1274.213,-64.2,,
1274.228,-64.79,,
1274.243,-62.79,,
1274.258,-63.39,,
1274.273,-63.44,,
1274.288,-63.12,,
1274.303,-63.6,,
1274.318,-62.45,,
1274.333,-62.36,,
1274.348,-62.65,,
1274.363,-62.16,,
1274.378,-62.92,,
1274.393,-62.01,,
1274.408,-62.44,,
1274.423,-62.28,,
1274.438,-62.13,,
1274.453,-62.36,,
1274.468,-61.52,,
1274.483,-61.75,,
1274.498,-61.36,,
1274.513,-60.93,,
1274.528,-61.38,,
1274.543,-61.15,,
1274.558,-61.27,,
1274.573,-61.24,,
1274.588,-61.15,,
1274.603,-61.51,,
1274.618,-61.27,,
1274.633,-61.39,,
1274.648,-61.29,,
1274.663,-61.48,,
1274.678,-61.41,,
1274.693,-61.13,,
1274.708,-61.27,,
1274.723,-61.03,,
1274.738,-61.58,,
1274.753,-60.88,,
1274.768,-60.68,,
1274.783,-60.6,,
1274.798,-60.29,,
1274.813,-60.75,,
1274.828,-60.43,,
1274.843,-60.37,,
1274.858,-60.22,,
1274.873,-59.83,,
1274.888,-60.43,,
1274.903,-60.44,,
1274.918,-61.09,,
1274.933,-60.29,,
1274.948,-60.47,,
1274.963,-60.86,,
1274.978,-60.98,,
1274.993,-61.03,,
1275.008,-60.12,,
1275.023,-60.48,,
1275.038,-60.67,,
1275.053,-61.01,,
1275.068,-60.65,,
1275.083,-60.22,,
1275.098,-61.05,,
1275.113,-61.16,,
1275.128,-61.21,,
1275.143,-61.09,,
1275.158,-60.87,,
1275.173,-61.66,,
1275.188,-61.22,,
1275.203,-61.69,,
1275.218,-61.19,,
1275.233,-61.08,,
1275.248,-61.55,,
1275.263,-61.21,,
1275.278,-61.35,,
1275.293,-61.12,,
1275.308,-61.24,,
1275.323,-61.25,,
1275.338,-61.07,,
1275.353,-61.69,,
1275.368,-61.56,,
1275.383,-61.38,,
1275.398,-61.44,,
1275.413,-61.04,,
1275.428,-62.05,,
1275.443,-61.64,,
1275.458,-61.83,,
1275.473,-61.66,,
1275.488,-61.68,,
1275.503,-63.19,,
1275.518,-63.73,,
1275.533,-63.62,,
1275.548,-63.09,,
1275.563,-63.29,,
1275.578,-65.0,,
1275.593,-65.17,,
1275.608,-64.52,,
1275.623,-64.16,,
1275.638,-65.54,,
1275.653,-68.98,,
1275.668,-68.5,,
1275.683,-67.87,,
1275.698,-67.45,,
1275.713,-74.54,,
1275.728,-210.0,,
1275.743,-210.0,,
1275.758,-210.0,,
1275.773,-78.59,,
1275.788,-210.0,,
1275.803,-210.0,,
1275.818,-210.0,,
1275.833,-210.0,,
1275.848,-210.0,,
1275.863,-210.0,,
1275.878,-210.0,,
1275.893,-210.0,,
1275.908,-210.0,,
1275.923,-210.0,,
1275.938,-210.0,,
1275.953,-210.0,,
1275.968,-210.0,,
1275.983,-210.0,,
1275.998,-210.0,,
1276.013,-210.0,,
1276.028,-210.0,,
1276.043,-210.0,,
1276.058,-210.0,,
1276.073,-210.0,,
1276.088,-210.0,,
1276.103,-210.0,,
1276.118,-210.0,,
1276.133,-210.0,,
1276.148,-210.0,,
1276.163,-210.0,,
1276.178,-210.0,,
1276.193,-210.0,,
1276.208,-210.0,,
1276.223,-210.0,,
1276.238,-210.0,,
1276.253,-210.0,,
1276.268,-210.0,,
1276.283,-210.0,,
1276.298,-210.0,,
1276.313,-210.0,,
1276.328,-210.0,,
1276.343,-210.0,,
1276.358,-210.0,,
1276.373,-210.0,,
1276.388,-210.0,,
1276.403,-210.0,,
1276.418,-210.0,,
1276.433,-210.0,,
1276.448,-210.0,,
1276.463,-210.0,,
1276.478,-210.0,,
1276.493,-210.0,,
1276.508,-210.0,,
1276.523,-210.0,,
1276.538,-210.0,,
1276.553,-210.0,,
1276.568,-210.0,,
1276.583,-210.0,,
1276.598,-210.0,,
1276.613,-210.0,,
1276.628,-210.0,,
1276.643,-210.0,,
1276.658,-210.0,,
1276.673,-210.0,,
1276.688,-210.0,,
1276.703,-210.0,,
1276.718,-210.0,,
1276.733,-210.0,,
1276.748,-210.0,,
1276.763,-210.0,,
1276.778,-210.0,,
1276.793,-210.0,,
1276.808,-210.0,,
1276.823,-210.0,,
1276.838,-210.0,,
1276.853,-210.0,,
1276.868,-210.0,,
1276.883,-210.0,,
1276.898,-210.0,,
1276.913,-210.0,,
1276.928,-210.0,,
1276.943,-210.0,,
1276.958,-210.0,,
1276.973,-210.0,,
1276.988,-210.0,,
1277.003,-210.0,,
1277.018,-210.0,,
1277.033,-210.0,,
1277.048,-210.0,,
1277.063,-210.0,,
1277.078,-210.0,,
1277.093,-210.0,,
1277.108,-210.0,,
1277.123,-210.0,,
1277.138,-210.0,,
1277.153,-210.0,,
1277.168,-210.0,,
1277.183,-210.0,,
1277.198,-210.0,,
1277.214,-210.0,,
1277.228,-210.0,,
1277.243,-210.0,,
1277.258,-210.0,,
1277.273,-210.0,,
1277.288,-210.0,,
1277.303,-210.0,,
1277.318,-210.0,,
1277.333,-210.0,,
1277.349,-210.0,,
1277.364,-210.0,,
1277.378,-210.0,,
1277.393,-210.0,,
1277.408,-210.0,,
1277.423,-210.0,,
1277.438,-210.0,,
1277.453,-210.0,,
1277.469,-210.0,,
1277.484,-210.0,,
1277.499,-210.0,,
1277.514,-210.0,,
1277.528,-210.0,,
1277.543,-210.0,,
1277.558,-210.0,,
1277.573,-210.0,,
1277.589,-210.0,,
1277.604,-210.0,,
1277.619,-210.0,,
1277.634,-210.0,,
1277.649,-210.0,,
1277.663,-210.0,,
1277.678,-210.0,,
1277.693,-210.0,,
1277.708,-69.79,,
1277.724,-69.81,,
1277.739,-77.18,,
1277.754,-210.0,,
1277.769,-210.0,,
1277.784,-68.08,,
1277.799,-69.15,,
1277.813,-70.72,,
1277.828,-73.39,,
1277.844,-70.01,,
1277.859,-65.82,,
1277.874,-67.98,,
1277.889,-70.13,,
1277.904,-68.31,,
1277.919,-67.05,,
1277.934,-66.13,,
1277.948,-71.97,,
1277.964,-210.0,,
1277.979,-210.0,,
1277.994,-76.27,,
1278.009,-73.04,,
1278.024,-210.0,,
1278.039,-210.0,,
1278.054,-210.0,,
1278.069,-82.02,,
1278.084,-210.0,,
1278.099,-210.0,,
1278.114,-210.0,,
1278.129,-210.0,,
1278.144,-210.0,,
1278.159,-210.0,,
1278.174,-210.0,,
1278.189,-210.0,,
1278.204,-210.0,,
1278.219,-210.0,,
1278.234,-210.0,,
1278.249,-210.0,,
1278.264,-210.0,,
1278.279,-70.87,,
1278.294,-70.77,,
1278.309,-210.0,,
1278.324,-210.0,,
1278.339,-67.86,,
1278.354,-67.22,,
1278.369,-67.25,,
1278.384,-70.95,,
1278.399,-70.6,,
1278.414,-65.76,,
1278.429,-66.22,,
1278.444,-67.47,,
1278.459,-71.02,,
1278.474,-67.55,,
1278.489,-65.84,,
1278.504,-68.23,,
1278.519,-67.87,,
1278.534,-70.36,,
1278.549,-67.79,,
1278.564,-67.17,,
1278.579,-68.61,,
1278.594,-77.36,,
1278.609,-71.59,,
1278.624,-69.35,,
1278.639,-71.25,,
1278.654,-210.0,,
1278.669,-210.0,,
1278.684,-210.0,,
1278.699,-90.17,,
1278.714,-210.0,,
1278.729,-210.0,,
1278.744,-210.0,,
1278.759,-210.0,,
1278.774,-210.0,,
1278.789,-210.0,,
1278.804,-210.0,,
1278.819,-210.0,,
1278.834,-210.0,,
1278.849,-210.0,,
1278.864,-210.0,,
1278.879,-210.0,,
1278.894,-210.0,,
1278.909,-210.0,,
1278.924,-210.0,,
1278.939,-210.0,,
1278.954,-210.0,,
1278.969,-210.0,,
1278.984,-84.36,,
1278.999,-72.44,,
1279.014,-210.0,,
1279.029,-210.0,,
1279.044,-210.0,,
1279.059,-67.96,,
1279.074,-68.38,,
1279.089,-72.24,,
1279.104,-70.56,,
1279.119,-66.98,,
1279.134,-66.12,,
1279.149,-70.99,,
1279.164,-91.58,,
1279.179,-71.03,,
1279.194,-67.67,,
1279.209,-68.56,,
1279.224,-210.0,,
1279.239,-210.0,,
1279.254,-210.0,,
1279.269,-82.19,,
1279.284,-210.0,,
1279.299,-210.0,,
1279.314,-210.0,,
1279.329,-210.0,,
1279.344,-210.0,,
1279.359,-210.0,,
1279.374,-210.0,,
1279.389,-210.0,,
1279.404,-210.0,,
1279.419,-210.0,,
1279.434,-210.0,,
1279.449,-210.0,,
1279.464,-210.0,,
1279.479,-210.0,,
1279.494,-210.0,,
1279.509,-210.0,,
1279.524,-210.0,,
1279.539,-210.0,,
1279.554,-210.0,,
1279.569,-210.0,,
1279.584,-210.0,,
1279.599,-210.0,,
1279.614,-76.08,,
1279.629,-68.98,,
1279.644,-69.98,,
1279.659,-73.62,,
1279.674,-68.84,,
1279.689,-66.68,,
1279.704,-66.08,,
1279.719,-67.1,,
1279.734,-68.83,,
1279.749,-66.21,,
1279.764,-64.16,,
1279.779,-65.19,,
1279.794,-68.5,,
1279.809,-69.62,,
1279.824,-66.24,,
1279.839,-64.68,,
1279.854,-68.14,,
1279.869,-73.62,,
1279.884,-72.87,,
1279.899,-67.24,,
1279.914,-69.12,,
1279.929,-210.0,,
1279.944,-210.0,,
1279.959,-210.0,,
1279.974,-70.04,,
1279.989,-84.99,,
1280.004,-210.0,,
1280.019,-210.0,,
1280.034,-210.0,,
1280.049,-77.54,,
1280.064,-210.0,,
1280.079,-210.0,,
1280.094,-210.0,,
1280.109,-210.0,,
1280.124,-210.0,,
1280.139,-210.0,,
1280.154,-210.0,,
1280.169,-210.0,,
1280.184,-73.67,,
1280.199,-210.0,,
1280.214,-210.0,,
1280.229,-210.0,,
1280.244,-68.53,,
1280.259,-67.15,,
1280.274,-68.49,,
1280.289,-78.22,,
1280.304,-68.3,,
1280.319,-65.84,,
1280.334,-66.51,,
1280.349,-71.88,,
1280.364,-71.07,,
1280.379,-68.07,,
1280.394,-65.1,,
1280.409,-69.09,,
1280.424,-74.86,,
1280.439,-81.34,,
1280.454,-68.06,,
1280.469,-69.14,,
1280.484,-73.51,,
1280.499,-210.0,,
1280.514,-210.0,,
1280.529,-71.09,,
1280.544,-71.53,,
1280.559,-210.0,,
1280.574,-210.0,,
1280.589,-210.0,,
1280.604,-210.0,,
1280.619,-210.0,,
1280.634,-210.0,,
1280.649,-210.0,,
1280.664,-210.0,,
1280.679,-210.0,,
1280.694,-210.0,,
1280.709,-210.0,,
1280.724,-210.0,,
1280.739,-210.0,,
1280.754,-210.0,,
1280.769,-210.0,,
1280.784,-210.0,,
1280.799,-210.0,,
1280.814,-210.0,,
1280.829,-210.0,,
1280.844,-210.0,,
1280.859,-210.0,,
1280.874,-210.0,,
1280.889,-67.96,,
1280.904,-68.31,,
1280.919,-71.35,,
1280.934,-70.54,,
1280.949,-66.88,,
1280.964,-65.37,,
1280.979,-66.24,,
1280.994,-67.84,,
1281.009,-66.64,,
1281.024,-65.54,,
1281.039,-65.23,,
1281.054,-65.95,,
1281.069,-67.04,,
1281.084,-65.52,,
1281.099,-65.61,,
1281.114,-66.12,,
1281.129,-66.15,,
1281.144,-67.0,,
1281.159,-66.71,,
1281.174,-66.63,,
1281.189,-67.34,,
1281.204,-71.06,,
1281.219,-68.4,,
1281.234,-69.59,,
1281.249,-69.45,,
1281.264,-69.02,,
1281.279,-69.87,,
1281.294,-65.75,,
1281.309,-69.77,,
1281.324,-70.35,,
1281.339,-67.04,,
1281.354,-67.45,,
1281.369,-65.38,,
1281.384,-68.56,,
1281.399,-70.39,,
1281.414,-66.3,,
1281.429,-67.71,,
1281.444,-66.12,,
1281.459,-67.52,,
1281.474,-67.94,,
1281.489,-65.78,,
1281.504,-67.84,,
1281.519,-65.97,,
1281.534,-68.6,,
1281.549,-67.75,,
1281.564,-65.17,,
1281.579,-66.16,,
1281.594,-65.1,,
1281.609,-65.58,,
1281.624,-65.05,,
1281.639,-63.43,,
1281.654,-65.77,,
1281.669,-65.89,,
1281.684,-65.58,,
1281.699,-64.79,,
1281.714,-64.06,,
1281.729,-67.96,,
1281.744,-66.07,,
1281.759,-65.1,,
1281.774,-66.43,,
1281.789,-64.56,,
1281.804,-66.45,,
1281.819,-65.31,,
1281.834,-64.8,,
1281.849,-64.86,,
1281.864,-64.75,,
1281.879,-66.15,,
1281.894,-66.45,,
1281.909,-66.89,,
1281.924,-67.02,,
1281.939,-67.77,,
1281.954,-67.86,,
1281.969,-70.06,,
1281.984,-71.11,,
1281.999,-70.08,,
1282.014,-70.28,,
1282.029,-70.88,,
1282.044,-73.92,,
1282.059,-72.83,,
1282.074,-70.8,,
1282.089,-71.83,,
1282.104,-71.89,,
1282.119,-68.87,,
1282.134,-69.35,,
1282.149,-68.71,,
1282.164,-68.06,,
1282.179,-66.14,,
1282.194,-66.97,,
1282.209,-67.33,,
1282.224,-65.89,,
1282.239,-66.09,,
1282.254,-65.03,,
1282.269,-65.65,,
1282.284,-67.33,,
1282.299,-69.64,,
1282.314,-69.55,,
1282.329,-66.35,,
1282.344,-67.24,,
1282.359,-68.95,,
1282.374,-73.63,,
1282.389,-70.9,,
1282.404,-68.1,,
1282.419,-71.12,,
1282.434,-75.84,,
1282.449,-69.39,,
1282.464,-65.4,,
1282.479,-65.05,,
1282.494,-66.13,,
1282.509,-66.88,,
1282.524,-66.36,,
1282.539,-64.2,,
1282.554,-65.0,,
1282.569,-66.17,,
1282.584,-66.72,,
1282.599,-65.8,,
1282.614,-64.71,,
1282.629,-66.78,,
1282.644,-67.8,,
1282.659,-67.75,,
1282.674,-65.93,,
1282.689,-66.24,,
1282.704,-69.81,,
1282.719,-210.0,,
1282.734,-72.2,,
1282.749,-69.63,,
1282.764,-72.8,,
1282.779,-77.07,,
1282.794,-210.0,,
1282.809,-72.06,,
1282.824,-70.39,,
1282.839,-73.02,,
1282.854,-210.0,,
1282.869,-79.08,,
1282.884,-66.88,,
1282.899,-66.23,,
1282.914,-66.81,,
1282.929,-71.13,,
1282.944,-67.11,,
1282.959,-65.68,,
1282.974,-65.78,,
1282.989,-66.37,,
1283.004,-70.87,,
1283.019,-66.21,,
1283.034,-66.28,,
1283.049,-67.88,,
1283.064,-73.02,,
1283.079,-210.0,,
1283.094,-70.84,,
1283.109,-69.56,,
1283.124,-210.0,,
1283.139,-210.0,,
1283.154,-75.16,,
1283.169,-67.58,,
1283.184,-69.12,,
1283.199,-81.42,,
1283.214,-71.8,,
1283.229,-68.93,,
1283.244,-68.21,,
1283.259,-69.73,,
1283.274,-210.0,,
1283.289,-72.15,,
1283.304,-70.05,,
1283.319,-68.07,,
1283.334,-72.83,,
1283.349,-210.0,,
1283.364,-80.29,,
1283.379,-71.28,,
1283.394,-70.23,,
1283.409,-74.62,,
1283.424,-210.0,,
1283.439,-68.56,,
1283.454,-67.26,,
1283.469,-74.09,,
1283.484,-86.52,,
1283.499,-75.13,,
1283.514,-68.6,,
1283.529,-67.82,,
1283.544,-73.74,,
1283.559,-71.52,,
1283.574,-70.42,,
1283.589,-65.45,,
1283.604,-65.32,,
1283.619,-72.16,,
1283.634,-69.09,,
1283.649,-70.95,,
1283.664,-68.8,,
1283.679,-68.92,,
1283.694,-76.25,,
1283.709,-72.7,,
1283.724,-69.06,,
1283.739,-69.49,,
1283.754,-67.99,,
1283.769,-70.59,,
1283.784,-67.79,,
1283.799,-65.54,,
1283.814,-69.73,,
1283.829,-68.32,,
1283.844,-68.06,,
1283.859,-66.72,,
1283.874,-65.8,,
1283.889,-69.11,,
1283.904,-68.01,,
1283.919,-69.51,,
1283.934,-67.43,,
1283.949,-67.8,,
1283.964,-210.0,,
1283.979,-210.0,,
1283.994,-75.01,,
1284.009,-71.75,,
1284.024,-84.37,,
1284.039,-210.0,,
1284.054,-76.1,,
1284.069,-69.13,,
1284.084,-67.87,,
1284.099,-67.81,,
1284.114,-74.5,,
1284.129,-66.54,,
1284.144,-65.36,,
1284.159,-72.01,,
1284.174,-76.56,,
1284.189,-210.0,,
1284.204,-68.79,,
1284.219,-70.09,,
1284.234,-210.0,,
1284.249,-79.86,,
1284.264,-73.32,,
1284.279,-66.23,,
1284.294,-68.28,,
1284.309,-210.0,,
1284.324,-69.87,,
1284.339,-66.19,,
1284.354,-65.04,,
1284.369,-65.28,,
1284.384,-68.1,,
1284.399,-65.06,,
1284.414,-64.11,,
1284.429,-64.1,,
1284.444,-65.72,,
1284.459,-69.85,,
1284.474,-65.63,,
1284.489,-64.82,,
1284.504,-68.24,,
1284.519,-69.9,,
1284.534,-72.56,,
1284.549,-67.03,,
1284.564,-66.63,,
1284.579,-75.23,,
1284.594,-210.0,,
1284.609,-210.0,,
1284.624,-68.55,,
1284.639,-69.56,,
1284.654,-210.0,,
1284.669,-70.95,,
1284.684,-68.17,,
1284.699,-67.11,,
1284.714,-67.36,,
1284.729,-71.78,,
1284.744,-66.55,,
1284.759,-66.02,,
1284.774,-66.72,,
1284.789,-69.84,,
1284.804,-75.23,,
1284.819,-66.22,,
1284.834,-65.97,,
1284.849,-71.04,,
1284.864,-72.99,,
1284.879,-79.63,,
1284.894,-67.64,,
1284.909,-68.71,,
1284.924,-210.0,,
1284.939,-74.11,,
1284.954,-69.8,,
1284.969,-65.78,,
1284.984,-66.27,,
1284.999,-70.18,,
1285.014,-66.2,,
1285.029,-65.1,,
1285.044,-64.87,,
1285.059,-66.34,,
1285.074,-69.12,,
1285.089,-65.97,,
1285.104,-65.61,,
1285.119,-65.32,,
1285.134,-65.84,,
1285.149,-68.77,,
1285.164,-64.57,,
1285.179,-64.8,,
1285.194,-67.19,,
1285.209,-68.05,,
1285.224,-67.96,,
1285.24,-65.18,,
1285.255,-66.58,,
1285.269,-70.3,,
1285.284,-74.11,,
1285.299,-69.54,,
1285.314,-66.13,,
1285.329,-68.3,,
1285.344,-210.0,,
1285.359,-70.77,,
1285.375,-71.31,,
1285.39,-71.22,,
1285.404,-210.0,,
1285.419,-210.0,,
1285.434,-78.69,,
1285.449,-75.96,,
1285.464,-72.4,,
1285.479,-210.0,,
1285.495,-210.0,,
1285.51,-74.3,,
1285.525,-210.0,,
1285.54,-210.0,,
1285.554,-210.0,,
1285.569,-210.0,,
1285.584,-70.39,,
1285.599,-74.96,,
1285.615,-210.0,,
1285.63,-210.0,,
1285.645,-210.0,,
1285.66,-68.61,,
1285.675,-74.27,,
1285.689,-210.0,,
1285.704,-210.0,,
1285.719,-210.0,,
1285.734,-210.0,,
1285.75,-210.0,,
1285.765,-210.0,,
1285.78,-210.0,,
1285.795,-210.0,,
1285.81,-210.0,,
1285.825,-210.0,,
1285.839,-210.0,,
1285.854,-210.0,,
1285.87,-210.0,,
1285.885,-210.0,,
1285.9,-210.0,,
1285.915,-210.0,,
1285.93,-210.0,,
1285.945,-210.0,,
1285.96,-210.0,,
1285.974,-210.0,,
1285.99,-210.0,,
1286.005,-210.0,,
1286.02,-210.0,,
1286.035,-210.0,,
1286.05,-210.0,,
1286.065,-210.0,,
1286.08,-210.0,,
1286.095,-210.0,,
1286.11,-210.0,,
1286.125,-210.0,,
1286.14,-210.0,,
1286.155,-210.0,,
1286.17,-210.0,,
1286.185,-210.0,,
1286.2,-210.0,,
1286.215,-210.0,,
1286.23,-210.0,,
1286.245,-210.0,,
1286.26,-210.0,,
1286.275,-210.0,,
1286.29,-210.0,,
1286.305,-210.0,,
1286.32,-210.0,,
1286.335,-210.0,,
1286.35,-210.0,,
1286.365,-210.0,,
1286.38,-210.0,,
1286.395,-210.0,,
1286.41,-210.0,,
1286.425,-210.0,,
1286.44,-210.0,,
1286.455,-210.0,,
1286.47,-210.0,,
1286.485,-210.0,,
1286.5,-210.0,,
1286.515,-210.0,,
1286.53,-210.0,,
1286.545,-210.0,,
1286.56,-210.0,,
1286.575,-210.0,,
1286.59,-210.0,,
1286.605,-210.0,,
1286.62,-210.0,,
1286.635,-210.0,,
1286.65,-210.0,,
1286.665,-210.0,,
1286.68,-210.0,,
1286.695,-210.0,,
1286.71,-210.0,,
1286.725,-210.0,,
1286.74,-210.0,,
1286.755,-210.0,,
1286.77,-210.0,,
1286.785,-210.0,,
1286.8,-210.0,,
1286.815,-210.0,,
1286.83,-210.0,,
1286.845,-210.0,,
1286.86,-210.0,,
1286.875,-210.0,,
1286.89,-210.0,,
1286.905,-210.0,,
1286.92,-210.0,,
1286.935,-210.0,,
1286.95,-210.0,,
1286.965,-210.0,,
1286.98,-210.0,,
1286.995,-210.0,,
1287.01,-210.0,,
1287.025,-210.0,,
1287.04,-210.0,,
1287.055,-210.0,,
1287.07,-210.0,,
1287.085,-210.0,,
1287.1,-210.0,,
1287.115,-78.75,,
1287.13,-80.57,,
1287.145,-84.69,,
1287.16,-210.0,,
1287.175,-210.0,,
1287.19,-210.0,,
1287.205,-210.0,,
1287.22,-210.0,,
1287.235,-210.0,,
1287.25,-210.0,,
1287.265,-210.0,,
1287.28,-210.0,,
1287.295,-210.0,,
1287.31,-210.0,,
1287.325,-210.0,,
1287.34,-74.82,,
1287.355,-210.0,,
1287.37,-210.0,,
1287.385,-210.0,,
1287.4,-210.0,,
1287.415,-210.0,,
1287.43,-210.0,,
1287.445,-210.0,,
1287.46,-210.0,,
1287.475,-210.0,,
1287.49,-210.0,,
1287.505,-210.0,,
1287.52,-210.0,,
1287.535,-210.0,,
1287.55,-210.0,,
1287.565,-72.61,,
1287.58,-210.0,,
1287.595,-210.0,,
1287.61,-72.9,,
1287.625,-210.0,,
1287.64,-210.0,,
1287.655,-210.0,,
1287.67,-210.0,,
1287.685,-210.0,,
1287.7,-210.0,,
1287.715,-76.9,,
1287.73,-70.89,,
1287.745,-72.15,,
1287.76,-66.85,,
1287.775,-67.39,,
1287.79,-71.0,,
1287.805,-69.26,,
1287.82,-72.11,,
1287.835,-67.98,,
1287.85,-71.95,,
1287.865,-76.21,,
1287.88,-67.89,,
1287.895,-74.51,,
1287.91,-69.73,,
1287.925,-74.44,,
1287.94,-210.0,,
1287.955,-71.82,,
1287.97,-68.36,,
1287.985,-77.5,,
1288.0,-83.5,,
1288.015,-210.0,,
1288.03,-69.99,,
1288.045,-69.47,,
1288.06,-210.0,,
1288.075,-210.0,,
1288.09,-210.0,,
1288.105,-210.0,,
1288.12,-210.0,,
1288.135,-210.0,,
1288.15,-210.0,,
1288.165,-210.0,,
1288.18,-210.0,,
1288.195,-210.0,,
1288.21,-210.0,,
1288.225,-210.0,,
1288.24,-72.54,,
1288.255,-210.0,,
1288.27,-210.0,,
1288.285,-210.0,,
1288.3,-73.35,,
1288.315,-69.8,,
1288.33,-210.0,,
1288.345,-210.0,,
1288.36,-73.54,,
1288.375,-69.52,,
1288.39,-69.77,,
1288.405,-210.0,,
1288.42,-210.0,,
1288.435,-72.18,,
1288.45,-75.93,,
1288.465,-71.08,,
1288.48,-69.04,,
1288.495,-70.3,,
1288.51,-67.13,,
1288.525,-68.62,,
1288.54,-73.25,,
1288.555,-72.3,,
1288.57,-69.99,,
1288.585,-66.13,,
1288.6,-69.25,,
1288.615,-210.0,,
1288.63,-68.76,,
1288.645,-67.33,,
1288.66,-65.95,,
1288.675,-68.67,,
1288.69,-71.56,,
1288.705,-69.63,,
1288.72,-68.38,,
1288.735,-210.0,,
1288.75,-76.7,,
1288.765,-210.0,,
1288.78,-70.99,,
1288.795,-70.08,,
1288.81,-210.0,,
1288.825,-71.27,,
1288.84,-73.76,,
1288.855,-76.22,,
1288.87,-80.15,,
1288.885,-210.0,,
1288.9,-210.0,,
1288.915,-80.83,,
1288.93,-74.91,,
1288.945,-69.55,,
1288.96,-71.58,,
1288.975,-71.3,,
1288.99,-66.94,,
1289.005,-69.46,,
1289.02,-70.83,,
1289.035,-73.97,,
1289.05,-71.67,,
1289.065,-67.16,,
1289.08,-69.35,,
1289.095,-210.0,,
1289.11,-68.51,,
1289.125,-66.8,,
1289.14,-66.27,,
1289.155,-68.7,,
1289.17,-69.86,,
1289.185,-66.51,,
1289.2,-65.92,,
1289.215,-66.14,,
1289.23,-67.07,,
1289.245,-67.91,,
1289.26,-65.28,,
1289.275,-66.1,,
1289.29,-70.8,,
1289.305,-70.85,,
1289.32,-71.51,,
1289.335,-66.31,,
1289.35,-68.46,,
1289.365,-210.0,,
1289.38,-74.25,,
1289.395,-68.37,,
1289.41,-70.0,,
1289.425,-70.82,,
1289.44,-210.0,,
1289.455,-69.32,,
1289.47,-67.56,,
1289.485,-76.52,,
1289.5,-81.87,,
1289.515,-72.77,,
1289.53,-70.83,,
1289.545,-67.16,,
1289.56,-71.53,,
1289.575,-72.78,,
1289.59,-74.36,,
1289.605,-210.0,,
1289.62,-210.0,,
1289.635,-210.0,,
1289.65,-210.0,,
1289.665,-210.0,,
1289.68,-75.06,,
1289.695,-210.0,,
1289.71,-210.0,,
1289.725,-210.0,,
1289.74,-70.73,,
1289.755,-210.0,,
1289.77,-210.0,,
1289.785,-210.0,,
1289.8,-210.0,,
1289.815,-84.61,,
1289.83,-210.0,,
1289.845,-210.0,,
1289.86,-210.0,,
1289.875,-79.38,,
1289.89,-210.0,,
1289.905,-210.0,,
1289.92,-210.0,,
1289.935,-73.25,,
1289.95,-210.0,,
1289.965,-210.0,,
1289.98,-210.0,,
1289.995,-210.0,,
1290.01,-210.0,,
1290.025,-210.0,,
1290.04,-210.0,,
1290.055,-210.0,,
1290.07,-210.0,,
1290.085,-210.0,,
1290.1,-210.0,,
1290.115,-210.0,,
1290.13,-210.0,,
1290.145,-210.0,,
1290.16,-210.0,,
1290.175,-74.05,,
1290.19,-74.67,,
1290.205,-72.09,,
1290.22,-74.21,,
1290.235,-210.0,,
1290.25,-71.83,,
1290.265,-77.74,,
1290.28,-70.1,,
1290.295,-69.72,,
1290.31,-71.46,,
1290.325,-70.3,,
1290.34,-210.0,,
1290.355,-210.0,,
1290.37,-210.0,,
1290.385,-210.0,,
1290.4,-210.0,,
1290.415,-210.0,,
1290.43,-210.0,,
1290.445,-69.62,,
1290.46,-71.01,,
1290.475,-69.99,,
1290.49,-69.07,,
1290.505,-72.44,,
1290.52,-72.0,,
1290.535,-73.69,,
1290.55,-210.0,,
1290.565,-210.0,,
1290.58,-210.0,,
1290.595,-210.0,,
1290.61,-210.0,,
1290.625,-210.0,,
1290.64,-210.0,,
1290.655,-210.0,,
1290.67,-210.0,,
1290.685,-210.0,,
1290.7,-210.0,,
1290.715,-68.9,,
1290.73,-70.88,,
1290.745,-210.0,,
1290.76,-83.68,,
1290.775,-210.0,,
1290.79,-75.17,,
1290.805,-82.76,,
1290.82,-210.0,,
1290.835,-210.0,,
1290.85,-74.81,,
1290.865,-210.0,,
1290.88,-210.0,,
1290.895,-210.0,,
1290.91,-74.95,,
1290.925,-72.0,,
1290.94,-210.0,,
1290.955,-210.0,,
1290.97,-79.2,,
1290.985,-210.0,,
1291.0,-210.0,,
1291.015,-210.0,,
1291.03,-210.0,,
1291.045,-72.85,,
1291.06,-210.0,,
1291.075,-210.0,,
1291.09,-210.0,,
1291.105,-210.0,,
1291.12,-210.0,,
1291.135,-210.0,,
1291.15,-210.0,,
1291.165,-74.36,,
1291.18,-71.69,,
1291.195,-71.12,,
1291.21,-210.0,,
1291.225,-210.0,,
1291.24,-72.38,,
1291.255,-210.0,,
1291.27,-210.0,,
1291.285,-210.0,,
1291.3,-210.0,,
1291.315,-210.0,,
1291.33,-210.0,,
1291.345,-210.0,,
1291.36,-210.0,,
1291.375,-71.22,,
1291.39,-83.42,,
1291.405,-210.0,,
1291.42,-210.0,,
1291.435,-75.69,,
1291.45,-74.19,,
1291.465,-210.0,,
1291.48,-210.0,,
1291.495,-210.0,,
1291.51,-210.0,,
1291.525,-210.0,,
1291.54,-210.0,,
1291.555,-210.0,,
1291.57,-76.28,,
1291.585,-70.35,,
1291.6,-79.54,,
1291.615,-210.0,,
1291.63,-72.11,,
1291.645,-69.07,,
1291.66,-69.04,,
1291.675,-210.0,,
1291.69,-74.36,,
1291.705,-68.52,,
1291.72,-66.78,,
1291.735,-70.58,,
1291.75,-71.01,,
1291.765,-67.93,,
1291.78,-65.03,,
1291.795,-70.28,,
1291.81,-73.78,,
1291.825,-70.31,,
1291.84,-65.98,,
1291.855,-68.12,,
1291.87,-83.46,,
1291.885,-210.0,,
1291.9,-67.22,,
1291.915,-66.39,,
1291.93,-68.48,,
1291.945,-75.57,,
1291.96,-66.41,,
1291.975,-66.2,,
1291.99,-67.43,,
1292.005,-70.34,,
1292.02,-70.9,,
1292.035,-67.53,,
1292.05,-68.27,,
1292.065,-82.9,,
1292.08,-71.5,,
1292.095,-67.2,,
1292.11,-67.61,,
1292.125,-68.74,,
1292.14,-210.0,,
1292.155,-69.25,,
1292.17,-68.47,,
1292.185,-77.4,,
1292.2,-210.0,,
1292.215,-210.0,,
1292.23,-70.84,,
1292.245,-77.49,,
1292.26,-210.0,,
1292.275,-210.0,,
1292.29,-68.83,,
1292.305,-66.98,,
1292.32,-72.85,,
1292.335,-210.0,,
1292.35,-75.83,,
1292.365,-70.44,,
1292.38,-210.0,,
1292.395,-210.0,,
1292.41,-210.0,,
1292.425,-71.28,,
1292.44,-67.75,,
1292.455,-76.04,,
1292.47,-210.0,,
1292.485,-71.43,,
1292.5,-67.19,,
1292.515,-210.0,,
1292.53,-210.0,,
1292.545,-210.0,,
1292.56,-72.54,,
1292.575,-87.19,,
1292.59,-210.0,,
1292.605,-210.0,,
1292.62,-72.94,,
1292.635,-72.44,,
1292.65,-210.0,,
1292.665,-210.0,,
1292.68,-210.0,,
1292.695,-210.0,,
1292.71,-210.0,,
1292.725,-210.0,,
1292.74,-210.0,,
1292.755,-210.0,,
1292.77,-210.0,,
1292.785,-210.0,,
1292.8,-210.0,,
1292.815,-210.0,,
1292.83,-210.0,,
1292.845,-210.0,,
1292.86,-210.0,,
1292.875,-210.0,,
1292.89,-210.0,,
1292.905,-210.0,,
1292.92,-210.0,,
1292.935,-210.0,,
1292.95,-210.0,,
1292.965,-210.0,,
1292.98,-210.0,,
1292.995,-210.0,,
1293.01,-210.0,,
1293.025,-210.0,,
1293.04,-210.0,,
1293.055,-210.0,,
1293.07,-210.0,,
1293.085,-210.0,,
1293.1,-210.0,,
1293.115,-210.0,,
1293.13,-210.0,,
1293.145,-210.0,,
1293.16,-210.0,,
1293.175,-210.0,,
1293.19,-210.0,,
1293.205,-210.0,,
1293.22,-210.0,,
1293.235,-210.0,,
1293.25,-210.0,,
1293.266,-210.0,,
1293.281,-210.0,,
1293.295,-210.0,,
1293.31,-210.0,,
1293.325,-210.0,,
1293.34,-210.0,,
1293.355,-78.41,,
1293.37,-210.0,,
1293.385,-210.0,,
1293.401,-210.0,,
1293.416,-210.0,,
1293.43,-210.0,,
1293.445,-210.0,,
1293.46,-210.0,,
1293.475,-210.0,,
1293.49,-210.0,,
1293.505,-210.0,,
1293.521,-210.0,,
1293.536,-210.0,,
1293.551,-76.72,,
1293.566,-210.0,,
1293.58,-210.0,,
1293.595,-210.0,,
1293.61,-83.1,,
1293.625,-210.0,,
1293.641,-210.0,,
1293.656,-210.0,,
1293.671,-71.15,,
1293.686,-68.2,,
1293.701,-71.4,,
1293.715,-74.3,,
1293.73,-69.45,,
1293.745,-65.06,,
1293.76,-66.5,,
1293.776,-77.57,,
1293.791,-77.21,,
1293.806,-69.12,,
1293.821,-69.96,,
1293.836,-69.41,,
1293.851,-210.0,,
1293.865,-69.06,,
1293.88,-66.65,,
1293.896,-65.51,,
1293.911,-67.78,,
1293.926,-67.12,,
1293.941,-67.83,,
1293.956,-66.21,,
1293.971,-68.08,,
1293.986,-74.24,,
1294.001,-76.33,,
1294.016,-78.63,,
1294.031,-74.68,,
1294.046,-73.75,,
1294.061,-78.02,,
1294.076,-67.13,,
1294.091,-68.32,,
1294.106,-68.89,,
1294.121,-69.71,,
1294.136,-68.91,,
1294.151,-68.16,,
1294.166,-68.76,,
1294.181,-210.0,,
1294.196,-210.0,,
1294.211,-210.0,,
1294.226,-78.88,,
1294.241,-210.0,,
1294.256,-210.0,,
1294.271,-210.0,,
1294.286,-71.4,,
1294.301,-210.0,,
1294.316,-210.0,,
1294.331,-210.0,,
1294.346,-210.0,,
1294.361,-210.0,,
1294.376,-210.0,,
1294.391,-210.0,,
1294.406,-210.0,,
1294.421,-210.0,,
1294.436,-210.0,,
1294.451,-210.0,,
1294.466,-210.0,,
1294.481,-210.0,,
1294.496,-210.0,,
1294.511,-210.0,,
1294.526,-210.0,,
1294.541,-210.0,,
1294.556,-210.0,,
1294.571,-210.0,,
1294.586,-210.0,,
1294.601,-210.0,,
1294.616,-210.0,,
1294.631,-210.0,,
1294.646,-210.0,,
1294.661,-210.0,,
1294.676,-210.0,,
1294.691,-210.0,,
1294.706,-210.0,,
1294.721,-210.0,,
1294.736,-210.0,,
1294.751,-210.0,,
1294.766,-210.0,,
1294.781,-210.0,,
1294.796,-210.0,,
1294.811,-210.0,,
1294.826,-210.0,,
1294.841,-210.0,,
1294.856,-210.0,,
1294.871,-210.0,,
1294.886,-210.0,,
1294.901,-210.0,,
1294.916,-210.0,,
1294.931,-210.0,,
1294.946,-210.0,,
1294.961,-210.0,,
1294.976,-210.0,,
1294.991,-210.0,,
1295.006,-210.0,,
1295.021,-210.0,,
1295.036,-210.0,,
1295.051,-210.0,,
1295.066,-210.0,,
1295.081,-210.0,,
1295.096,-210.0,,
1295.111,-210.0,,
1295.126,-210.0,,
1295.141,-210.0,,
1295.156,-210.0,,
1295.171,-210.0,,
1295.186,-210.0,,
1295.201,-210.0,,
1295.216,-210.0,,
1295.231,-210.0,,
1295.246,-210.0,,
1295.261,-210.0,,
1295.276,-210.0,,
1295.291,-210.0,,
1295.306,-210.0,,
1295.321,-210.0,,
1295.336,-210.0,,
1295.351,-210.0,,
1295.366,-210.0,,
1295.381,-210.0,,
1295.396,-210.0,,
1295.411,-210.0,,
1295.426,-210.0,,
1295.441,-210.0,,
1295.456,-210.0,,
1295.471,-210.0,,
1295.486,-210.0,,
1295.501,-84.76,,
1295.516,-210.0,,
1295.531,-210.0,,
1295.546,-210.0,,
1295.561,-210.0,,
1295.576,-210.0,,
1295.591,-210.0,,
1295.606,-210.0,,
1295.621,-210.0,,
1295.636,-85.56,,
1295.651,-210.0,,
1295.666,-210.0,,
1295.681,-210.0,,
1295.696,-210.0,,
1295.711,-210.0,,
1295.726,-210.0,,
1295.741,-75.4,,
1295.756,-75.66,,
1295.771,-210.0,,
1295.786,-71.67,,
1295.801,-72.29,,
1295.816,-71.13,,
1295.831,-68.89,,
1295.846,-72.22,,
1295.861,-210.0,,
1295.876,-66.89,,
1295.891,-66.04,,
1295.906,-66.91,,
1295.921,-66.94,,
1295.936,-68.87,,
1295.951,-65.87,,
1295.966,-64.73,,
1295.981,-68.09,,
1295.996,-69.77,,
1296.011,-67.97,,
1296.026,-67.39,,
1296.041,-66.11,,
1296.056,-70.15,,
1296.071,-68.55,,
1296.086,-66.31,,
1296.101,-67.48,,
1296.116,-78.77,,
1296.131,-79.65,,
1296.146,-71.95,,
1296.161,-67.05,,
1296.176,-69.79,,
1296.191,-210.0,,
1296.206,-69.77,,
1296.221,-69.2,,
1296.236,-74.84,,
1296.251,-210.0,,
1296.266,-210.0,,
1296.281,-74.01,,
1296.296,-77.56,,
1296.311,-210.0,,
1296.326,-210.0,,
1296.341,-78.57,,
1296.356,-69.73,,
1296.371,-71.13,,
1296.386,-75.32,,
1296.401,-71.15,,
1296.416,-67.71,,
1296.431,-68.11,,
1296.446,-210.0,,
1296.461,-210.0,,
1296.476,-71.16,,
1296.491,-68.82,,
1296.506,-76.38,,
1296.521,-210.0,,
1296.536,-68.67,,
1296.551,-68.51,,
1296.566,-70.09,,
1296.581,-210.0,,
1296.596,-210.0,,
1296.611,-210.0,,
1296.626,-210.0,,
1296.641,-210.0,,
1296.656,-210.0,,
1296.671,-210.0,,
1296.686,-72.46,,
1296.701,-210.0,,
1296.716,-210.0,,
1296.731,-210.0,,
1296.746,-210.0,,
1296.761,-210.0,,
1296.776,-210.0,,
1296.791,-210.0,,
1296.806,-210.0,,
1296.821,-210.0,,
1296.836,-210.0,,
1296.851,-210.0,,
1296.866,-210.0,,
1296.881,-210.0,,
1296.896,-210.0,,
1296.911,-210.0,,
1296.926,-210.0,,
1296.941,-210.0,,
1296.956,-210.0,,
1296.971,-210.0,,
1296.986,-210.0,,
1297.001,-210.0,,
1297.016,-210.0,,
1297.031,-210.0,,
1297.046,-210.0,,
1297.061,-210.0,,
1297.076,-210.0,,
1297.091,-210.0,,
1297.106,-210.0,,
1297.121,-210.0,,
1297.136,-73.43,,
1297.151,-80.3,,
1297.166,-210.0,,
1297.181,-210.0,,
1297.196,-76.04,,
1297.211,-74.61,,
1297.226,-210.0,,
1297.241,-210.0,,
1297.256,-210.0,,
1297.271,-75.84,,
1297.286,-74.27,,
1297.301,-210.0,,
1297.316,-210.0,,
1297.331,-67.53,,
1297.346,-72.35,,
1297.361,-210.0,,
1297.376,-210.0,,
1297.391,-72.79,,
1297.406,-67.05,,
1297.421,-68.91,,
1297.436,-210.0,,
1297.451,-69.43,,
1297.466,-67.72,,
1297.481,-69.71,,
1297.496,-80.81,,
1297.511,-72.23,,
1297.526,-67.37,,
1297.541,-66.42,,
1297.556,-72.04,,
1297.571,-74.33,,
1297.586,-66.01,,
1297.601,-64.84,,
1297.616,-68.07,,
1297.631,-67.83,,
1297.646,-66.68,,
1297.661,-64.95,,
1297.676,-66.44,,
1297.691,-73.65,,
1297.706,-67.25,,
1297.721,-64.53,,
1297.736,-65.18,,
1297.751,-66.95,,
1297.766,-210.0,,
1297.781,-67.29,,
1297.796,-66.13,,
1297.811,-70.68,,
1297.826,-80.79,,
1297.841,-70.02,,
1297.856,-66.96,,
1297.871,-67.15,,
1297.886,-71.3,,
1297.901,-69.87,,
1297.916,-67.08,,
1297.931,-68.42,,
1297.946,-210.0,,
1297.961,-210.0,,
1297.976,-68.28,,
1297.991,-66.91,,
1298.006,-67.14,,
1298.021,-68.95,,
1298.036,-66.66,,
1298.051,-66.55,,
1298.066,-67.13,,
1298.081,-210.0,,
1298.096,-210.0,,
1298.111,-71.99,,
1298.126,-69.9,,
1298.141,-210.0,,
1298.156,-210.0,,
1298.171,-73.78,,
1298.186,-66.57,,
1298.201,-70.01,,
1298.216,-75.63,,
1298.231,-210.0,,
1298.246,-70.7,,
1298.261,-75.3,,
1298.276,-210.0,,
1298.291,-210.0,,
1298.306,-69.11,,
1298.321,-69.0,,
1298.336,-71.59,,
1298.351,-210.0,,
1298.366,-69.93,,
1298.381,-68.9,,
1298.396,-71.95,,
1298.411,-210.0,,
1298.426,-210.0,,
1298.441,-71.19,,
1298.456,-69.7,,
1298.471,-210.0,,
1298.486,-210.0,,
1298.501,-74.58,,
1298.516,-210.0,,
1298.531,-210.0,,
1298.546,-210.0,,
1298.561,-210.0,,
1298.576,-210.0,,
1298.591,-210.0,,
1298.606,-210.0,,
1298.621,-210.0,,
1298.636,-210.0,,
1298.651,-210.0,,
1298.666,-210.0,,
1298.681,-210.0,,
1298.696,-210.0,,
1298.711,-210.0,,
1298.726,-210.0,,
1298.741,-210.0,,
1298.756,-210.0,,
1298.771,-77.48,,
1298.786,-210.0,,
1298.801,-210.0,,
1298.816,-210.0,,
1298.831,-210.0,,
1298.846,-210.0,,
1298.861,-210.0,,
1298.876,-210.0,,
1298.891,-210.0,,
1298.906,-210.0,,
1298.921,-210.0,,
1298.936,-210.0,,
1298.951,-210.0,,
1298.966,-210.0,,
1298.981,-210.0,,
1298.996,-210.0,,
1299.011,-210.0,,
1299.026,-210.0,,
1299.041,-210.0,,
1299.056,-210.0,,
1299.071,-210.0,,
1299.086,-210.0,,
1299.101,-210.0,,
1299.116,-210.0,,
1299.131,-210.0,,
1299.146,-210.0,,
1299.161,-210.0,,
1299.176,-210.0,,
1299.191,-210.0,,
1299.206,-210.0,,
1299.221,-210.0,,
1299.236,-210.0,,
1299.251,-210.0,,
1299.266,-210.0,,
1299.281,-210.0,,
1299.296,-75.99,,
1299.311,-210.0,,
1299.326,-210.0,,
1299.341,-210.0,,
1299.356,-210.0,,
1299.371,-210.0,,
1299.386,-210.0,,
1299.401,-210.0,,
1299.416,-210.0,,
1299.431,-210.0,,
1299.446,-210.0,,
1299.461,-210.0,,
1299.476,-210.0,,
1299.491,-74.14,,
1299.506,-210.0,,
1299.521,-210.0,,
1299.536,-210.0,,
1299.551,-210.0,,
1299.566,-210.0,,
1299.581,-210.0,,
1299.596,-210.0,,
1299.611,-210.0,,
1299.626,-70.95,,
1299.641,-210.0,,
1299.656,-210.0,,
1299.671,-70.95,,
1299.686,-68.12,,
1299.701,-71.77,,
1299.716,-73.88,,
1299.731,-70.33,,
1299.746,-66.77,,
1299.761,-69.66,,
1299.776,-210.0,,
1299.791,-71.12,,
1299.806,-67.62,,
1299.821,-67.51,,
1299.836,-73.01,,
1299.851,-68.39,,
1299.866,-64.85,,
1299.881,-64.53,,
1299.896,-66.98,,
1299.911,-66.84,,
1299.926,-66.05,,
1299.941,-65.11,,
1299.956,-67.05,,
1299.971,-67.34,,
1299.986,-65.55,,
1300.001,-65.07,,
1300.016,-66.81,,
1300.031,-70.9,,
1300.046,-71.97,,
1300.061,-68.08,,
1300.076,-68.36,,
1300.091,-74.93,,
1300.106,-72.36,,
1300.121,-68.61,,
1300.136,-72.8,,
1300.151,-80.94,,
1300.166,-210.0,,
1300.181,-210.0,,
1300.196,-71.16,,
1300.211,-210.0,,
1300.226,-210.0,,
1300.241,-75.83,,
1300.256,-210.0,,
1300.271,-73.15,,
1300.286,-210.0,,
1300.301,-73.35,,
1300.316,-70.23,,
1300.331,-210.0,,
1300.346,-210.0,,
1300.361,-75.82,,
1300.376,-210.0,,
1300.391,-210.0,,
1300.406,-210.0,,
1300.421,-210.0,,
1300.436,-210.0,,
1300.451,-210.0,,
1300.466,-210.0,,
1300.481,-210.0,,
1300.496,-210.0,,
1300.511,-210.0,,
1300.526,-210.0,,
1300.541,-210.0,,
1300.556,-210.0,,
1300.571,-210.0,,
1300.586,-210.0,,
1300.601,-210.0,,
1300.616,-210.0,,
1300.631,-210.0,,
1300.646,-210.0,,
1300.661,-210.0,,
1300.676,-210.0,,
1300.691,-210.0,,
1300.706,-210.0,,
1300.721,-210.0,,
1300.736,-210.0,,
1300.751,-210.0,,
1300.766,-210.0,,
1300.781,-210.0,,
1300.796,-210.0,,
1300.811,-210.0,,
1300.826,-210.0,,
1300.841,-210.0,,
1300.856,-210.0,,
1300.871,-210.0,,
1300.886,-210.0,,
1300.901,-210.0,,
1300.916,-210.0,,
1300.931,-210.0,,
1300.946,-210.0,,
1300.961,-210.0,,
1300.976,-210.0,,
1300.991,-210.0,,
1301.006,-210.0,,
1301.021,-210.0,,
1301.036,-210.0,,
1301.051,-210.0,,
1301.066,-210.0,,
1301.081,-210.0,,
1301.096,-210.0,,
1301.111,-210.0,,
1301.126,-210.0,,
1301.141,-210.0,,
1301.156,-76.86,,
1301.171,-210.0,,
1301.186,-210.0,,
1301.201,-210.0,,
1301.216,-210.0,,
1301.231,-210.0,,
1301.246,-210.0,,
1301.261,-210.0,,
1301.276,-210.0,,
1301.292,-210.0,,
1301.307,-210.0,,
1301.321,-210.0,,
1301.336,-210.0,,
1301.351,-210.0,,
1301.366,-210.0,,
1301.381,-210.0,,
1301.396,-210.0,,
1301.411,-210.0,,
1301.427,-210.0,,
1301.442,-210.0,,
1301.457,-210.0,,
1301.471,-68.82,,
1301.486,-72.86,,
1301.501,-210.0,,
1301.516,-72.25,,
1301.531,-69.6,,
1301.547,-70.12,,
1301.562,-74.58,,
1301.577,-71.41,,
1301.592,-66.6,,
1301.606,-67.01,,
1301.621,-79.16,,
1301.636,-72.46,,
1301.651,-76.55,,
1301.667,-69.6,,
1301.682,-77.67,,
1301.697,-74.69,,
1301.712,-71.35,,
1301.727,-65.99,,
1301.742,-69.08,,
1301.756,-74.54,,
1301.771,-73.25,,
1301.786,-70.07,,
1301.802,-76.03,,
1301.817,-210.0,,
1301.832,-78.49,,
1301.847,-67.65,,
1301.862,-68.26,,
1301.877,-210.0,,
1301.891,-210.0,,
1301.906,-76.33,,
1301.922,-74.87,,
1301.937,-210.0,,
1301.952,-210.0,,
1301.967,-82.13,,
1301.982,-70.31,,
1301.997,-210.0,,
1302.012,-210.0,,
1302.027,-210.0,,
1302.042,-70.03,,
1302.057,-84.06,,
1302.072,-210.0,,
1302.087,-71.4,,
1302.102,-69.44,,
1302.117,-66.46,,
1302.132,-69.22,,
1302.147,-71.19,,
1302.162,-68.4,,
1302.177,-68.54,,
1302.192,-76.71,,
1302.207,-70.89,,
1302.222,-67.65,,
1302.237,-65.88,,
1302.252,-65.6,,
1302.267,-68.69,,
1302.282,-68.7,,
1302.297,-64.81,,
1302.312,-66.87,,
1302.327,-68.16,,
1302.342,-65.49,,
1302.357,-65.74,,
1302.372,-63.72,,
1302.387,-65.19,,
1302.402,-66.38,,
1302.417,-64.78,,
1302.432,-63.95,,
1302.447,-64.7,,
1302.462,-64.29,,
1302.477,-65.03,,
1302.492,-67.96,,
1302.507,-66.59,,
1302.522,-68.26,,
1302.537,-68.48,,
1302.552,-67.12,,
1302.567,-68.34,,
1302.582,-69.84,,
1302.597,-72.44,,
1302.612,-76.53,,
1302.627,-76.12,,
1302.642,-210.0,,
1302.657,-210.0,,
1302.672,-73.93,,
1302.687,-69.79,,
1302.702,-76.86,,
1302.717,-70.62,,
1302.732,-72.51,,
1302.747,-84.37,,
1302.762,-75.61,,
1302.777,-210.0,,
1302.792,-210.0,,
1302.807,-70.41,,
1302.822,-210.0,,
1302.837,-210.0,,
1302.852,-210.0,,
1302.867,-210.0,,
1302.882,-210.0,,
1302.897,-210.0,,
1302.912,-210.0,,
1302.927,-210.0,,
1302.942,-210.0,,
1302.957,-210.0,,
1302.972,-210.0,,
1302.987,-210.0,,
1303.002,-210.0,,
1303.017,-210.0,,
1303.032,-210.0,,
1303.047,-210.0,,
1303.062,-210.0,,
1303.077,-210.0,,
1303.092,-210.0,,
1303.107,-210.0,,
1303.122,-210.0,,
1303.137,-210.0,,
1303.152,-210.0,,
1303.167,-210.0,,
1303.182,-210.0,,
1303.197,-210.0,,
1303.212,-210.0,,
1303.227,-210.0,,
1303.242,-210.0,,
1303.257,-210.0,,
1303.272,-210.0,,
1303.287,-210.0,,
1303.302,-210.0,,
1303.317,-210.0,,
1303.332,-210.0,,
1303.347,-210.0,,
1303.362,-210.0,,
1303.377,-210.0,,
1303.392,-210.0,,
1303.407,-210.0,,
1303.422,-210.0,,
1303.437,-210.0,,
1303.452,-210.0,,
1303.467,-210.0,,
1303.482,-210.0,,
1303.497,-210.0,,
1303.512,-210.0,,
1303.527,-210.0,,
1303.542,-210.0,,
1303.557,-210.0,,
1303.572,-210.0,,
1303.587,-210.0,,
1303.602,-210.0,,
1303.617,-210.0,,
1303.632,-210.0,,
1303.647,-210.0,,
1303.662,-210.0,,
1303.677,-210.0,,
1303.692,-210.0,,
1303.707,-77.14,,
1303.722,-210.0,,
1303.737,-210.0,,
1303.752,-210.0,,
1303.767,-210.0,,
1303.782,-210.0,,
1303.797,-210.0,,
1303.812,-210.0,,
1303.827,-210.0,,
1303.842,-210.0,,
1303.857,-210.0,,
1303.872,-210.0,,
1303.887,-210.0,,
1303.902,-210.0,,
1303.917,-210.0,,
1303.932,-210.0,,
1303.947,-210.0,,
1303.962,-210.0,,
1303.977,-210.0,,
1303.992,-210.0,,
1304.007,-77.24,,
1304.022,-210.0,,
1304.037,-210.0,,
1304.052,-210.0,,
1304.067,-210.0,,
1304.082,-210.0,,
1304.097,-210.0,,
1304.112,-210.0,,
1304.127,-210.0,,
1304.142,-210.0,,
1304.157,-210.0,,
1304.172,-210.0,,
1304.187,-210.0,,
1304.202,-210.0,,
1304.217,-210.0,,
1304.232,-210.0,,
1304.247,-210.0,,
1304.262,-210.0,,
1304.277,-210.0,,
1304.292,-210.0,,
1304.307,-210.0,,
1304.322,-210.0,,
1304.337,-74.55,,
1304.352,-210.0,,
1304.367,-210.0,,
1304.382,-210.0,,
1304.397,-210.0,,
1304.412,-210.0,,
1304.427,-210.0,,
1304.442,-210.0,,
1304.457,-210.0,,
1304.472,-210.0,,
1304.487,-210.0,,
1304.502,-210.0,,
1304.517,-210.0,,
1304.532,-210.0,,
1304.547,-210.0,,
1304.562,-210.0,,
1304.577,-210.0,,
1304.592,-210.0,,
1304.607,-210.0,,
1304.622,-210.0,,
1304.637,-210.0,,
1304.652,-210.0,,
1304.667,-210.0,,
1304.682,-210.0,,
1304.697,-210.0,,
1304.712,-210.0,,
1304.727,-210.0,,
1304.742,-210.0,,
1304.757,-210.0,,
1304.772,-210.0,,
1304.787,-210.0,,
1304.802,-210.0,,
1304.817,-210.0,,
1304.832,-210.0,,
1304.847,-210.0,,
1304.862,-210.0,,
1304.877,-210.0,,
1304.892,-210.0,,
1304.907,-210.0,,
1304.922,-210.0,,
1304.937,-210.0,,
1304.952,-210.0,,
1304.967,-210.0,,
1304.982,-210.0,,
1304.997,-210.0,,
1305.012,-210.0,,
1305.027,-210.0,,
1305.042,-210.0,,
1305.057,-210.0,,
1305.072,-210.0,,
1305.087,-210.0,,
1305.102,-210.0,,
1305.117,-210.0,,
1305.132,-210.0,,
1305.147,-210.0,,
1305.162,-210.0,,
1305.177,-210.0,,
1305.192,-210.0,,
1305.207,-210.0,,
1305.222,-210.0,,
1305.237,-210.0,,
1305.252,-210.0,,
1305.267,-210.0,,
1305.282,-210.0,,
1305.297,-210.0,,
1305.312,-210.0,,
1305.327,-210.0,,
1305.342,-210.0,,
1305.357,-210.0,,
1305.372,-210.0,,
1305.387,-210.0,,
1305.402,-210.0,,
1305.417,-210.0,,
1305.432,-210.0,,
1305.447,-210.0,,
1305.462,-210.0,,
1305.477,-210.0,,
1305.492,-74.73,,
1305.507,-210.0,,
1305.522,-210.0,,
1305.537,-210.0,,
1305.552,-210.0,,
1305.567,-76.29,,
1305.582,-71.18,,
1305.597,-210.0,,
1305.612,-72.26,,
1305.627,-74.4,,
1305.642,-82.58,,
1305.657,-72.35,,
1305.672,-210.0,,
1305.687,-210.0,,
1305.702,-78.03,,
1305.717,-210.0,,
1305.732,-74.31,,
1305.747,-71.14,,
1305.762,-210.0,,
1305.777,-210.0,,
1305.792,-210.0,,
1305.807,-210.0,,
1305.822,-210.0,,
1305.837,-70.71,,
1305.852,-81.89,,
1305.867,-210.0,,
1305.882,-76.64,,
1305.897,-69.28,,
1305.912,-69.56,,
1305.927,-74.9,,
1305.942,-70.8,,
1305.957,-210.0,,
1305.972,-210.0,,
1305.987,-210.0,,
1306.002,-210.0,,
1306.017,-210.0,,
1306.032,-210.0,,
1306.047,-210.0,,
1306.062,-210.0,,
1306.077,-210.0,,
1306.092,-210.0,,
1306.107,-210.0,,
1306.122,-210.0,,
1306.137,-210.0,,
1306.152,-73.03,,
1306.167,-68.32,,
1306.182,-210.0,,
1306.197,-210.0,,
1306.212,-69.13,,
1306.227,-67.01,,
1306.242,-70.07,,
1306.257,-69.27,,
1306.272,-68.43,,
1306.287,-66.79,,
1306.302,-67.08,,
1306.317,-84.45,,
1306.332,-70.26,,
1306.347,-67.23,,
1306.362,-77.59,,
1306.377,-210.0,,
1306.392,-210.0,,
1306.407,-89.61,,
1306.422,-210.0,,
1306.437,-210.0,,
1306.452,-210.0,,
1306.467,-210.0,,
1306.482,-77.53,,
1306.497,-210.0,,
1306.512,-210.0,,
1306.527,-210.0,,
1306.542,-210.0,,
1306.557,-210.0,,
1306.572,-210.0,,
1306.587,-210.0,,
1306.602,-210.0,,
1306.617,-210.0,,
1306.632,-210.0,,
1306.647,-210.0,,
1306.662,-210.0,,
1306.677,-210.0,,
1306.692,-210.0,,
1306.707,-210.0,,
1306.722,-210.0,,
1306.737,-210.0,,
1306.752,-210.0,,
1306.767,-210.0,,
1306.782,-210.0,,
1306.797,-210.0,,
1306.812,-210.0,,
1306.827,-210.0,,
1306.842,-210.0,,
1306.857,-210.0,,
1306.872,-210.0,,
1306.887,-210.0,,
1306.902,-210.0,,
1306.917,-210.0,,
1306.932,-210.0,,
1306.947,-210.0,,
1306.962,-210.0,,
1306.977,-210.0,,
1306.992,-210.0,,
1307.007,-210.0,,
1307.022,-210.0,,
1307.037,-72.82,,
1307.052,-68.31,,
1307.067,-72.01,,
1307.082,-72.73,,
1307.097,-70.79,,
1307.112,-68.49,,
1307.127,-82.63,,
1307.142,-210.0,,
1307.157,-210.0,,
1307.172,-210.0,,
1307.187,-76.73,,
1307.202,-210.0,,
1307.217,-210.0,,
1307.232,-210.0,,
1307.247,-210.0,,
1307.262,-210.0,,
1307.277,-210.0,,
1307.292,-210.0,,
1307.307,-210.0,,
1307.322,-210.0,,
1307.337,-210.0,,
1307.352,-210.0,,
1307.367,-210.0,,
1307.382,-210.0,,
1307.397,-210.0,,
1307.412,-210.0,,
1307.427,-210.0,,
1307.442,-210.0,,
1307.457,-210.0,,
1307.472,-210.0,,
1307.487,-210.0,,
1307.502,-210.0,,
1307.517,-210.0,,
1307.532,-210.0,,
1307.547,-210.0,,
1307.562,-210.0,,
1307.577,-210.0,,
1307.592,-210.0,,
1307.607,-210.0,,
1307.622,-210.0,,
1307.637,-210.0,,
1307.652,-210.0,,
1307.667,-210.0,,
1307.682,-210.0,,
1307.697,-210.0,,
1307.712,-210.0,,
1307.727,-210.0,,
1307.742,-210.0,,
1307.757,-210.0,,
1307.772,-210.0,,
1307.787,-210.0,,
1307.802,-210.0,,
1307.817,-210.0,,
1307.832,-210.0,,
1307.847,-210.0,,
1307.862,-210.0,,
1307.877,-210.0,,
1307.892,-210.0,,
1307.907,-210.0,,
1307.922,-210.0,,
1307.937,-210.0,,
1307.952,-210.0,,
1307.967,-210.0,,
1307.982,-210.0,,
1307.997,-210.0,,
1308.012,-210.0,,
1308.027,-210.0,,
1308.042,-210.0,,
1308.057,-210.0,,
1308.072,-210.0,,
1308.087,-210.0,,
1308.102,-210.0,,
1308.117,-210.0,,
1308.132,-210.0,,
1308.147,-210.0,,
1308.162,-210.0,,
1308.177,-210.0,,
1308.192,-210.0,,
1308.207,-210.0,,
1308.222,-210.0,,
1308.237,-210.0,,
1308.252,-210.0,,
1308.267,-210.0,,
1308.282,-210.0,,
1308.297,-210.0,,
1308.312,-210.0,,
1308.327,-210.0,,
1308.342,-210.0,,
1308.357,-210.0,,
1308.372,-210.0,,
1308.387,-210.0,,
1308.402,-210.0,,
1308.417,-210.0,,
1308.432,-210.0,,
1308.447,-210.0,,
1308.462,-210.0,,
1308.477,-210.0,,
1308.492,-210.0,,
1308.507,-210.0,,
1308.522,-210.0,,
1308.537,-210.0,,
1308.552,-210.0,,
1308.567,-210.0,,
1308.582,-210.0,,
1308.597,-210.0,,
1308.612,-210.0,,
1308.627,-210.0,,
1308.642,-210.0,,
1308.657,-210.0,,
1308.672,-210.0,,
1308.687,-210.0,,
1308.702,-210.0,,
1308.717,-210.0,,
1308.732,-210.0,,
1308.747,-210.0,,
1308.762,-210.0,,
1308.777,-210.0,,
1308.792,-210.0,,
1308.807,-210.0,,
1308.822,-210.0,,
1308.837,-210.0,,
1308.852,-210.0,,
1308.867,-210.0,,
1308.882,-210.0,,
1308.897,-210.0,,
1308.912,-210.0,,
1308.927,-210.0,,
1308.942,-71.49,,
1308.957,-210.0,,
1308.972,-210.0,,
1308.987,-210.0,,
1309.002,-210.0,,
1309.017,-72.04,,
1309.032,-210.0,,
1309.047,-210.0,,
1309.062,-82.91,,
1309.077,-74.73,,
1309.092,-210.0,,
1309.107,-210.0,,
1309.122,-210.0,,
1309.137,-210.0,,
1309.152,-210.0,,
1309.167,-210.0,,
1309.182,-78.0,,
1309.198,-66.94,,
1309.212,-69.8,,
1309.227,-210.0,,
1309.242,-67.67,,
1309.257,-65.62,,
1309.272,-68.71,,
1309.287,-73.02,,
1309.302,-73.16,,
1309.318,-70.31,,
1309.333,-75.48,,
1309.347,-210.0,,
1309.362,-69.73,,
1309.377,-66.18,,
1309.392,-69.2,,
1309.407,-82.0,,
1309.422,-67.71,,
1309.438,-67.55,,
1309.453,-68.03,,
1309.468,-68.61,,
1309.483,-68.81,,
1309.497,-66.74,,
1309.512,-66.36,,
1309.527,-67.37,,
1309.542,-69.12,,
1309.557,-65.21,,
1309.573,-66.14,,
1309.588,-72.91,,
1309.603,-84.5,,
1309.618,-68.98,,
1309.632,-73.0,,
1309.647,-210.0,,
1309.662,-73.95,,
1309.677,-71.34,,
1309.693,-68.48,,
1309.708,-210.0,,
1309.723,-210.0,,
1309.738,-71.38,,
1309.753,-70.36,,
1309.768,-210.0,,
1309.782,-210.0,,
1309.797,-210.0,,
1309.813,-78.88,,
1309.828,-210.0,,
1309.843,-210.0,,
1309.858,-210.0,,
1309.873,-210.0,,
1309.888,-210.0,,
1309.903,-210.0,,
1309.917,-210.0,,
1309.932,-210.0,,
1309.948,-210.0,,
1309.963,-210.0,,
1309.978,-210.0,,
1309.993,-210.0,,
1310.008,-210.0,,
1310.023,-210.0,,
1310.038,-210.0,,
1310.053,-210.0,,
1310.068,-210.0,,
1310.083,-210.0,,
1310.098,-210.0,,
1310.113,-210.0,,
1310.128,-210.0,,
1310.143,-210.0,,
1310.158,-210.0,,
1310.173,-210.0,,
1310.188,-210.0,,
1310.203,-210.0,,
1310.218,-210.0,,
1310.233,-210.0,,
1310.248,-210.0,,
1310.263,-210.0,,
1310.278,-210.0,,
1310.293,-210.0,,
1310.308,-210.0,,
1310.323,-210.0,,
1310.338,-210.0,,
1310.353,-210.0,,
1310.368,-210.0,,
1310.383,-210.0,,
1310.398,-210.0,,
1310.413,-210.0,,
1310.428,-210.0,,
1310.443,-210.0,,
1310.458,-210.0,,
1310.473,-210.0,,
1310.488,-210.0,,
1310.503,-210.0,,
1310.518,-210.0,,
1310.533,-210.0,,
1310.548,-210.0,,
1310.563,-210.0,,
1310.578,-210.0,,
1310.593,-210.0,,
1310.608,-210.0,,
1310.623,-210.0,,
1310.638,-210.0,,
1310.653,-210.0,,
1310.668,-71.1,,
1310.683,-72.27,,
1310.698,-210.0,,
1310.713,-210.0,,
1310.728,-71.86,,
1310.743,-210.0,,
1310.758,-210.0,,
1310.773,-210.0,,
1310.788,-67.25,,
1310.803,-67.91,,
1310.818,-70.28,,
1310.833,-67.97,,
1310.848,-65.24,,
1310.863,-65.1,,
1310.878,-70.52,,
1310.893,-67.98,,
1310.908,-65.01,,
1310.923,-67.08,,
1310.938,-70.04,,
1310.953,-66.18,,
1310.968,-64.05,,
1310.983,-65.17,,
1310.998,-66.6,,
1311.013,-66.15,,
1311.028,-64.05,,
1311.043,-63.96,,
1311.058,-65.86,,
1311.073,-64.77,,
1311.088,-62.73,,
1311.103,-63.4,,
1311.118,-65.39,,
1311.133,-65.19,,
1311.148,-63.65,,
1311.163,-62.39,,
1311.178,-63.88,,
1311.193,-65.26,,
1311.208,-64.2,,
1311.223,-62.66,,
1311.238,-62.71,,
1311.253,-64.63,,
1311.268,-62.81,,
1311.283,-62.4,,
1311.298,-63.35,,
1311.313,-64.55,,
1311.328,-64.25,,
1311.343,-63.32,,
1311.358,-63.91,,
1311.373,-65.24,,
1311.388,-66.24,,
1311.403,-64.15,,
1311.418,-64.19,,
1311.433,-66.63,,
1311.448,-64.75,,
1311.463,-63.56,,
1311.478,-63.65,,
1311.493,-66.17,,
1311.508,-67.06,,
1311.523,-64.18,,
1311.538,-64.3,,
1311.553,-65.45,,
1311.568,-66.83,,
1311.583,-64.22,,
1311.598,-64.44,,
1311.613,-67.05,,
1311.628,-66.86,,
1311.643,-64.54,,
1311.658,-65.6,,
1311.673,-69.21,,
1311.688,-70.78,,
1311.703,-66.56,,
1311.718,-65.3,,
1311.733,-65.56,,
1311.748,-68.22,,
1311.763,-65.76,,
1311.778,-64.79,,
1311.793,-66.54,,
1311.808,-67.47,,
1311.823,-66.0,,
1311.838,-66.18,,
1311.853,-69.51,,
1311.868,-75.59,,
1311.883,-66.9,,
1311.898,-66.42,,
1311.913,-67.19,,
1311.928,-72.09,,
1311.943,-68.76,,
1311.958,-67.66,,
1311.973,-70.61,,
1311.988,-72.81,,
1312.003,-68.02,,
1312.018,-67.34,,
1312.033,-68.61,,
1312.048,-210.0,,
1312.063,-69.93,,
1312.078,-67.11,,
1312.093,-69.87,,
1312.108,-78.03,,
1312.123,-71.6,,
1312.138,-68.16,,
1312.153,-67.94,,
1312.168,-210.0,,
1312.183,-72.84,,
1312.198,-65.96,,
1312.213,-65.87,,
1312.228,-72.29,,
1312.243,-75.8,,
1312.258,-67.63,,
1312.273,-65.96,,
1312.288,-69.04,,
1312.303,-71.98,,
1312.318,-66.17,,
1312.333,-66.84,,
1312.348,-70.13,,
1312.363,-67.99,,
1312.378,-66.07,,
1312.393,-64.42,,
1312.408,-66.86,,
1312.423,-66.07,,
1312.438,-65.48,,
1312.453,-64.49,,
1312.468,-66.3,,
1312.483,-71.33,,
1312.498,-67.0,,
1312.513,-65.3,,
1312.528,-67.17,,
1312.543,-70.77,,
1312.558,-68.94,,
1312.573,-65.83,,
1312.588,-68.34,,
1312.603,-73.88,,
1312.618,-67.42,,
1312.633,-65.15,,
1312.648,-66.48,,
1312.663,-69.96,,
1312.678,-67.48,,
1312.693,-65.43,,
1312.708,-65.89,,
1312.723,-69.67,,
1312.738,-72.16,,
1312.753,-66.63,,
1312.768,-68.03,,
1312.783,-74.91,,
1312.798,-69.57,,
1312.813,-66.86,,
1312.828,-73.31,,
1312.843,-78.06,,
1312.858,-78.22,,
1312.873,-68.21,,
1312.888,-74.66,,
1312.903,-210.0,,
1312.918,-210.0,,
1312.933,-71.96,,
1312.948,-70.29,,
1312.963,-210.0,,
1312.978,-73.89,,
1312.993,-69.0,,
1313.008,-79.63,,
1313.023,-210.0,,
1313.038,-75.2,,
1313.053,-69.92,,
1313.068,-69.04,,
1313.083,-210.0,,
1313.098,-78.6,,
1313.113,-70.93,,
1313.128,-67.76,,
1313.143,-210.0,,
1313.158,-210.0,,
1313.173,-69.15,,
1313.188,-68.47,,
1313.203,-210.0,,
1313.218,-210.0,,
1313.233,-68.68,,
1313.248,-70.39,,
1313.263,-69.84,,
1313.278,-71.52,,
1313.293,-70.35,,
1313.308,-67.22,,
1313.323,-73.32,,
1313.338,-77.19,,
1313.353,-68.19,,
1313.368,-70.82,,
1313.383,-210.0,,
1313.398,-210.0,,
1313.413,-68.35,,
1313.428,-73.04,,
1313.443,-70.5,,
1313.458,-71.19,,
1313.473,-68.75,,
1313.488,-69.85,,
1313.503,-81.88,,
1313.518,-210.0,,
1313.533,-210.0,,
1313.548,-70.76,,
1313.563,-210.0,,
1313.578,-210.0,,
1313.593,-72.05,,
1313.608,-69.79,,
1313.623,-210.0,,
1313.638,-92.25,,
1313.653,-76.67,,
1313.668,-210.0,,
1313.683,-210.0,,
1313.698,-210.0,,
1313.713,-210.0,,
1313.728,-76.25,,
1313.743,-210.0,,
1313.758,-210.0,,
1313.773,-210.0,,
1313.788,-73.78,,
1313.803,-210.0,,
1313.818,-210.0,,
1313.833,-210.0,,
1313.848,-210.0,,
1313.863,-75.26,,
1313.878,-210.0,,
1313.893,-210.0,,
1313.908,-68.75,,
1313.923,-70.24,,
1313.938,-210.0,,
1313.953,-76.96,,
1313.968,-67.74,,
1313.983,-89.6,,
1313.998,-210.0,,
1314.013,-68.8,,
1314.028,-67.46,,
1314.043,-69.65,,
1314.058,-210.0,,
1314.073,-210.0,,
1314.088,-69.3,,
1314.103,-73.39,,
1314.118,-210.0,,
1314.133,-210.0,,
1314.148,-72.31,,
1314.163,-210.0,,
1314.178,-210.0,,
1314.193,-210.0,,
1314.208,-71.92,,
1314.223,-70.9,,
1314.238,-210.0,,
1314.253,-210.0,,
1314.268,-76.54,,
1314.283,-210.0,,
1314.298,-210.0,,
1314.313,-210.0,,
1314.328,-210.0,,
1314.343,-79.0,,
1314.358,-210.0,,
1314.373,-210.0,,
1314.388,-75.73,,
1314.403,-75.74,,
1314.418,-210.0,,
1314.433,-210.0,,
1314.448,-210.0,,
1314.463,-210.0,,
1314.478,-210.0,,
1314.493,-210.0,,
1314.508,-69.81,,
1314.523,-70.03,,
1314.538,-210.0,,
1314.553,-78.35,,
1314.568,-67.16,,
1314.583,-66.34,,
1314.598,-72.4,,
1314.613,-75.97,,
1314.628,-67.02,,
1314.643,-68.42,,
1314.658,-210.0,,
1314.673,-210.0,,
1314.688,-68.94,,
1314.703,-66.28,,
1314.718,-68.43,,
1314.733,-70.54,,
1314.748,-67.44,,
1314.763,-66.56,,
1314.778,-68.44,,
1314.793,-75.15,,
1314.808,-67.58,,
1314.823,-65.98,,
1314.838,-70.35,,
1314.853,-68.15,,
1314.868,-67.47,,
1314.883,-65.76,,
1314.898,-70.1,,
1314.913,-70.94,,
1314.928,-69.9,,
1314.943,-71.0,,
1314.958,-74.21,,
1314.973,-72.2,,
1314.988,-69.68,,
1315.003,-70.38,,
1315.018,-210.0,,
1315.033,-210.0,,
1315.048,-210.0,,
1315.063,-210.0,,
1315.078,-210.0,,
1315.093,-210.0,,
1315.108,-210.0,,
1315.123,-210.0,,
1315.138,-75.06,,
1315.153,-71.57,,
1315.168,-71.5,,
1315.183,-70.05,,
1315.198,-68.86,,
1315.213,-68.9,,
1315.228,-70.98,,
1315.243,-70.09,,
1315.258,-71.08,,
1315.273,-72.04,,
1315.288,-75.92,,
1315.303,-72.25,,
1315.318,-77.49,,
1315.333,-79.1,,
1315.348,-210.0,,
1315.363,-210.0,,
1315.378,-210.0,,
1315.393,-210.0,,
1315.408,-210.0,,
1315.423,-210.0,,
1315.438,-210.0,,
1315.453,-210.0,,
1315.468,-210.0,,
1315.483,-77.07,,
1315.498,-210.0,,
1315.513,-79.09,,
1315.528,-210.0,,
1315.543,-210.0,,
1315.558,-210.0,,
1315.573,-210.0,,
1315.588,-210.0,,
1315.603,-210.0,,
1315.618,-210.0,,
1315.633,-210.0,,
1315.648,-210.0,,
1315.663,-210.0,,
1315.678,-210.0,,
1315.693,-210.0,,
1315.708,-210.0,,
1315.723,-210.0,,
1315.738,-210.0,,
1315.753,-210.0,,
1315.768,-210.0,,
1315.783,-210.0,,
1315.798,-210.0,,
1315.813,-210.0,,
1315.828,-210.0,,
1315.843,-210.0,,
1315.858,-210.0,,
1315.873,-210.0,,
1315.888,-210.0,,
1315.903,-210.0,,
1315.918,-210.0,,
1315.933,-210.0,,
1315.948,-210.0,,
1315.963,-210.0,,
1315.978,-210.0,,
1315.993,-210.0,,
1316.008,-210.0,,
1316.023,-80.75,,
1316.038,-69.41,,
1316.053,-69.37,,
1316.068,-69.98,,
1316.083,-67.2,,
1316.098,-75.66,,
1316.113,-71.89,,
1316.128,-66.92,,
1316.143,-70.14,,
1316.158,-210.0,,
1316.173,-210.0,,
1316.188,-68.85,,
1316.203,-210.0,,
1316.218,-210.0,,
1316.233,-210.0,,
1316.248,-210.0,,
1316.263,-210.0,,
1316.278,-210.0,,
1316.293,-210.0,,
1316.308,-70.58,,
1316.323,-68.54,,
1316.338,-78.77,,
1316.353,-74.01,,
1316.368,-66.17,,
1316.383,-68.37,,
1316.398,-72.17,,
1316.413,-66.55,,
1316.428,-65.29,,
1316.443,-68.54,,
1316.458,-68.42,,
1316.473,-69.36,,
1316.488,-69.1,,
1316.503,-68.71,,
1316.518,-69.66,,
1316.533,-69.26,,
1316.548,-66.53,,
1316.563,-67.26,,
1316.578,-69.44,,
1316.593,-68.27,,
1316.608,-65.02,,
1316.623,-66.34,,
1316.638,-69.71,,
1316.653,-65.64,,
1316.668,-65.67,,
1316.683,-65.62,,
1316.698,-64.74,,
1316.713,-65.1,,
1316.728,-65.77,,
1316.743,-65.53,,
1316.758,-64.51,,
1316.773,-65.87,,
1316.788,-66.0,,
1316.803,-67.07,,
1316.818,-69.35,,
1316.833,-69.7,,
1316.848,-66.03,,
1316.863,-69.37,,
1316.878,-67.19,,
1316.893,-68.07,,
1316.908,-68.85,,
1316.923,-67.93,,
1316.938,-66.95,,
1316.953,-68.85,,
1316.968,-69.63,,
1316.983,-67.54,,
1316.998,-67.29,,
1317.013,-67.16,,
1317.028,-67.72,,
1317.043,-66.98,,
1317.058,-67.6,,
1317.073,-69.63,,
1317.088,-71.22,,
1317.103,-68.9,,
1317.118,-68.39,,
1317.133,-69.35,,
1317.148,-70.55,,
1317.163,-66.0,,
1317.178,-66.32,,
1317.193,-70.33,,
1317.208,-71.52,,
1317.224,-67.88,,
1317.238,-68.62,,
1317.253,-94.51,,
1317.268,-69.69,,
1317.283,-67.99,,
1317.298,-68.32,,
1317.313,-210.0,,
1317.328,-81.15,,
1317.344,-68.56,,
1317.359,-67.09,,
1317.373,-70.46,,
1317.388,-72.52,,
1317.403,-67.17,,
1317.418,-67.81,,
1317.433,-83.0,,
1317.448,-70.33,,
1317.464,-68.54,,
1317.479,-73.96,,
1317.494,-210.0,,
1317.509,-71.86,,
1317.523,-69.11,,
1317.538,-210.0,,
1317.553,-210.0,,
1317.568,-210.0,,
1317.583,-73.38,,
1317.599,-210.0,,
1317.614,-210.0,,
1317.629,-210.0,,
1317.644,-71.34,,
1317.658,-89.55,,
1317.673,-210.0,,
1317.688,-210.0,,
1317.703,-72.16,,
1317.719,-210.0,,
1317.734,-210.0,,
1317.749,-74.93,,
1317.764,-77.99,,
1317.779,-210.0,,
1317.794,-210.0,,
1317.808,-72.28,,
1317.823,-70.47,,
1317.839,-71.68,,
1317.854,-210.0,,
1317.869,-210.0,,
1317.884,-73.94,,
1317.899,-78.31,,
1317.914,-210.0,,
1317.929,-81.83,,
1317.944,-91.92,,
1317.958,-76.17,,
1317.974,-210.0,,
1317.989,-210.0,,
1318.004,-210.0,,
1318.019,-210.0,,
1318.034,-68.21,,
1318.049,-78.41,,
1318.064,-210.0,,
1318.079,-72.4,,
1318.094,-73.56,,
1318.109,-73.32,,
1318.124,-77.32,,
1318.139,-76.85,,
1318.154,-70.59,,
1318.169,-210.0,,
1318.184,-210.0,,
1318.199,-210.0,,
1318.214,-74.02,,
1318.229,-210.0,,
1318.244,-210.0,,
1318.259,-69.52,,
1318.274,-66.88,,
1318.289,-72.81,,
1318.304,-210.0,,
1318.319,-66.78,,
1318.334,-70.3,,
1318.349,-210.0,,
1318.364,-210.0,,
1318.379,-210.0,,
1318.394,-210.0,,
1318.409,-210.0,,
1318.424,-210.0,,
1318.439,-210.0,,
1318.454,-210.0,,
1318.469,-210.0,,
1318.484,-210.0,,
1318.499,-210.0,,
1318.514,-210.0,,
1318.529,-210.0,,
1318.544,-210.0,,
1318.559,-75.55,,
1318.574,-210.0,,
1318.589,-210.0,,
1318.604,-210.0,,
1318.619,-210.0,,
1318.634,-210.0,,
1318.649,-210.0,,
1318.664,-210.0,,
1318.679,-210.0,,
1318.694,-210.0,,
1318.709,-210.0,,
1318.724,-210.0,,
1318.739,-210.0,,
1318.754,-210.0,,
1318.769,-210.0,,
1318.784,-210.0,,
1318.799,-210.0,,
1318.814,-210.0,,
1318.829,-210.0,,
1318.844,-210.0,,
1318.859,-210.0,,
1318.874,-210.0,,
1318.889,-210.0,,
1318.904,-210.0,,
1318.919,-210.0,,
1318.934,-210.0,,
1318.949,-210.0,,
1318.964,-210.0,,
1318.979,-210.0,,
1318.994,-210.0,,
1319.009,-210.0,,
1319.024,-210.0,,
1319.039,-210.0,,
1319.054,-210.0,,
1319.069,-210.0,,
1319.084,-210.0,,
1319.099,-210.0,,
1319.114,-210.0,,
1319.129,-210.0,,
1319.144,-210.0,,
1319.159,-210.0,,
1319.174,-210.0,,
1319.189,-210.0,,
1319.204,-210.0,,
1319.219,-210.0,,
1319.234,-210.0,,
1319.249,-73.29,,
1319.264,-210.0,,
1319.279,-210.0,,
1319.294,-210.0,,
1319.309,-210.0,,
1319.324,-210.0,,
1319.339,-210.0,,
1319.354,-210.0,,
1319.369,-210.0,,
1319.384,-210.0,,
1319.399,-210.0,,
1319.414,-210.0,,
1319.429,-210.0,,
1319.444,-210.0,,
1319.459,-210.0,,
1319.474,-71.3,,
1319.489,-68.01,,
1319.504,-210.0,,
1319.519,-210.0,,
1319.534,-70.96,,
1319.549,-69.05,,
1319.564,-72.1,,
1319.579,-82.09,,
1319.594,-77.47,,
1319.609,-74.04,,
1319.624,-210.0,,
1319.639,-74.34,,
1319.654,-210.0,,
1319.669,-210.0,,
1319.684,-210.0,,
1319.699,-210.0,,
1319.714,-210.0,,
1319.729,-73.82,,
1319.744,-210.0,,
1319.759,-210.0,,
1319.774,-69.66,,
1319.789,-68.93,,
1319.804,-83.95,,
1319.819,-70.6,,
1319.834,-210.0,,
1319.849,-210.0,,
1319.864,-74.49,,
1319.879,-70.22,,
1319.894,-210.0,,
1319.909,-210.0,,
1319.924,-72.85,,
1319.939,-70.23,,
1319.954,-210.0,,
1319.969,-210.0,,
1319.984,-75.32,,
1319.999,-210.0,,
1320.014,-210.0,,
1320.029,-72.75,,
1320.044,-72.01,,
1320.059,-77.92,,
1320.074,-70.93,,
1320.089,-71.46,,
1320.104,-67.34,,
1320.119,-66.67,,
1320.134,-72.21,,
1320.149,-74.87,,
1320.164,-210.0,,
1320.179,-210.0,,
1320.194,-210.0,,
1320.209,-210.0,,
1320.224,-69.53,,
1320.239,-76.98,,
1320.254,-210.0,,
1320.269,-78.81,,
1320.284,-210.0,,
1320.299,-210.0,,
1320.314,-93.3,,
1320.329,-210.0,,
1320.344,-210.0,,
1320.359,-210.0,,
1320.374,-71.84,,
1320.389,-73.15,,
1320.404,-66.04,,
1320.419,-68.17,,
1320.434,-71.14,,
1320.449,-68.42,,
1320.464,-65.66,,
1320.479,-68.74,,
1320.494,-69.84,,
1320.509,-67.35,,
1320.524,-66.31,,
1320.539,-69.44,,
1320.554,-69.1,,
1320.569,-72.94,,
1320.584,-76.19,,
1320.599,-70.22,,
1320.614,-69.96,,
1320.629,-73.34,,
1320.644,-210.0,,
1320.659,-69.19,,
1320.674,-67.31,,
1320.689,-71.2,,
1320.704,-69.36,,
1320.719,-71.47,,
1320.734,-70.77,,
1320.749,-69.33,,
1320.764,-70.03,,
1320.779,-72.5,,
1320.794,-73.22,,
1320.809,-70.46,,
1320.824,-72.64,,
1320.839,-66.18,,
1320.854,-65.41,,
1320.869,-68.14,,
1320.884,-75.27,,
1320.899,-66.68,,
1320.914,-66.39,,
1320.929,-74.34,,
1320.944,-73.95,,
1320.959,-66.98,,
1320.974,-67.0,,
1320.989,-73.86,,
1321.004,-69.71,,
1321.019,-65.93,,
1321.034,-67.38,,
1321.049,-210.0,,
1321.064,-70.41,,
1321.079,-66.97,,
1321.094,-67.77,,
1321.109,-71.62,,
1321.124,-210.0,,
1321.139,-68.43,,
1321.154,-68.01,,
1321.169,-70.32,,
1321.184,-72.4,,
1321.199,-69.03,,
1321.214,-70.44,,
1321.229,-210.0,,
1321.244,-210.0,,
1321.259,-69.52,,
1321.274,-71.02,,
1321.289,-76.04,,
1321.304,-69.11,,
1321.319,-68.11,,
1321.334,-71.34,,
1321.349,-72.01,,
1321.364,-67.46,,
1321.379,-67.7,,
1321.394,-70.23,,
1321.409,-210.0,,
1321.424,-70.1,,
1321.439,-66.96,,
1321.454,-92.48,,
1321.469,-210.0,,
1321.484,-210.0,,
1321.499,-210.0,,
1321.514,-210.0,,
1321.529,-210.0,,
1321.544,-210.0,,
1321.559,-210.0,,
1321.574,-210.0,,
1321.589,-210.0,,
1321.604,-73.77,,
1321.619,-75.0,,
1321.634,-210.0,,
1321.649,-210.0,,
1321.664,-78.71,,
1321.679,-210.0,,
1321.694,-210.0,,
1321.709,-210.0,,
1321.724,-68.05,,
1321.739,-68.09,,
1321.754,-68.55,,
1321.769,-67.86,,
1321.784,-70.62,,
1321.799,-71.43,,
1321.814,-69.91,,
1321.829,-68.53,,
1321.844,-72.53,,
1321.859,-72.43,,
1321.874,-75.24,,
1321.889,-82.18,,
1321.904,-76.42,,
1321.919,-73.81,,
1321.934,-71.38,,
1321.949,-74.13,,
1321.964,-74.35,,
1321.979,-71.4,,
1321.994,-71.33,,
1322.009,-72.08,,
1322.024,-69.0,,
1322.039,-70.13,,
1322.054,-65.24,,
1322.069,-66.02,,
1322.084,-67.71,,
1322.099,-67.74,,
1322.114,-71.33,,
1322.129,-73.02,,
1322.144,-69.06,,
1322.159,-68.25,,
1322.174,-69.79,,
1322.189,-69.08,,
1322.204,-67.59,,
1322.219,-68.29,,
1322.234,-70.87,,
1322.249,-67.21,,
1322.264,-66.66,,
1322.279,-68.52,,
1322.294,-70.37,,
1322.309,-72.48,,
1322.324,-210.0,,
1322.339,-74.75,,
1322.354,-67.46,,
1322.369,-71.39,,
1322.384,-210.0,,
1322.399,-73.13,,
1322.414,-72.71,,
1322.429,-210.0,,
1322.444,-210.0,,
1322.459,-95.1,,
1322.474,-210.0,,
1322.489,-73.48,,
1322.504,-70.5,,
1322.519,-72.95,,
1322.534,-75.66,,
1322.549,-69.74,,
1322.564,-69.07,,
1322.579,-71.57,,
1322.594,-71.5,,
1322.609,-210.0,,
1322.624,-210.0,,
1322.639,-73.09,,
1322.654,-71.84,,
1322.669,-87.85,,
1322.684,-81.37,,
1322.699,-71.0,,
1322.714,-84.42,,
1322.729,-82.84,,
1322.744,-75.52,,
1322.759,-210.0,,
1322.774,-210.0,,
1322.789,-210.0,,
1322.804,-72.85,,
1322.819,-210.0,,
1322.834,-210.0,,
1322.849,-71.44,,
1322.864,-210.0,,
1322.879,-210.0,,
1322.894,-71.76,,
1322.909,-68.23,,
1322.924,-72.0,,
1322.939,-210.0,,
1322.954,-69.09,,
1322.969,-68.69,,
1322.984,-210.0,,
1322.999,-210.0,,
1323.014,-210.0,,
1323.029,-210.0,,
1323.044,-210.0,,
1323.059,-210.0,,
1323.074,-210.0,,
1323.089,-210.0,,
1323.104,-210.0,,
1323.119,-210.0,,
1323.134,-210.0,,
1323.149,-210.0,,
1323.164,-210.0,,
1323.179,-210.0,,
1323.194,-210.0,,
1323.209,-210.0,,
1323.224,-210.0,,
1323.239,-210.0,,
1323.254,-210.0,,
1323.269,-210.0,,
1323.284,-210.0,,
1323.299,-210.0,,
1323.314,-210.0,,
1323.329,-210.0,,
1323.344,-210.0,,
1323.359,-210.0,,
1323.374,-210.0,,
1323.389,-210.0,,
1323.404,-210.0,,
1323.419,-210.0,,
1323.434,-210.0,,
1323.449,-210.0,,
1323.464,-210.0,,
1323.479,-210.0,,
1323.494,-210.0,,
1323.509,-210.0,,
1323.524,-210.0,,
1323.539,-210.0,,
1323.554,-210.0,,
1323.569,-210.0,,
1323.584,-210.0,,
1323.599,-210.0,,
1323.614,-210.0,,
1323.629,-210.0,,
1323.644,-210.0,,
1323.659,-210.0,,
1323.674,-210.0,,
1323.689,-210.0,,
1323.704,-210.0,,
1323.719,-210.0,,
1323.734,-210.0,,
1323.749,-210.0,,
1323.764,-210.0,,
1323.779,-210.0,,
1323.794,-210.0,,
1323.809,-210.0,,
1323.824,-210.0,,
1323.839,-210.0,,
1323.854,-210.0,,
1323.869,-210.0,,
1323.884,-210.0,,
1323.899,-210.0,,
1323.914,-210.0,,
1323.929,-210.0,,
1323.944,-210.0,,
1323.959,-210.0,,
1323.974,-210.0,,
1323.989,-210.0,,
1324.004,-210.0,,
1324.019,-210.0,,
1324.034,-210.0,,
1324.049,-210.0,,
1324.064,-210.0,,
1324.079,-210.0,,
1324.094,-210.0,,
1324.109,-210.0,,
1324.124,-210.0,,
1324.139,-210.0,,
1324.154,-210.0,,
1324.169,-210.0,,
1324.184,-210.0,,
1324.199,-210.0,,
1324.214,-210.0,,
1324.229,-210.0,,
1324.244,-210.0,,
1324.259,-210.0,,
1324.274,-210.0,,
1324.289,-210.0,,
1324.304,-210.0,,
1324.319,-210.0,,
1324.334,-210.0,,
1324.349,-210.0,,
1324.364,-210.0,,
1324.379,-68.06,,
1324.394,-74.14,,
1324.409,-210.0,,
1324.424,-79.94,,
1324.439,-69.37,,
1324.454,-79.94,,
1324.469,-210.0,,
1324.484,-68.54,,
1324.499,-68.92,,
1324.514,-70.44,,
1324.529,-210.0,,
1324.544,-67.96,,
1324.559,-67.29,,
1324.574,-70.47,,
1324.589,-72.11,,
1324.604,-67.94,,
1324.619,-69.04,,
1324.634,-78.44,,
1324.649,-68.6,,
1324.664,-67.91,,
1324.679,-68.14,,
1324.694,-69.4,,
1324.709,-67.42,,
1324.724,-67.25,,
1324.739,-70.18,,
1324.754,-210.0,,
1324.769,-109.59,,
1324.784,-68.9,,
1324.799,-210.0,,
1324.814,-210.0,,
1324.829,-69.88,,
1324.844,-68.58,,
1324.859,-210.0,,
1324.874,-210.0,,
1324.889,-78.54,,
1324.904,-210.0,,
1324.919,-210.0,,
1324.934,-210.0,,
1324.949,-75.48,,
1324.964,-70.92,,
1324.979,-210.0,,
1324.994,-210.0,,
1325.009,-68.11,,
1325.024,-69.19,,
1325.039,-210.0,,
1325.054,-69.84,,
1325.069,-67.53,,
1325.084,-71.64,,
1325.099,-210.0,,
1325.114,-70.3,,
1325.129,-69.17,,
1325.144,-68.1,,
1325.159,-78.33,,
1325.174,-210.0,,
1325.189,-68.24,,
1325.204,-70.19,,
1325.219,-210.0,,
1325.234,-210.0,,
1325.25,-68.16,,
1325.264,-71.1,,
1325.279,-210.0,,
1325.294,-210.0,,
1325.309,-69.71,,
1325.324,-70.03,,
1325.339,-210.0,,
1325.354,-74.08,,
1325.37,-68.86,,
1325.385,-73.94,,
1325.4,-210.0,,
1325.414,-71.73,,
1325.429,-70.5,,
1325.444,-76.52,,
1325.459,-210.0,,
1325.474,-70.14,,
1325.49,-73.09,,
1325.505,-210.0,,
1325.52,-210.0,,
1325.535,-80.16,,
1325.549,-72.26,,
1325.564,-210.0,,
1325.579,-210.0,,
1325.594,-70.25,,
1325.609,-210.0,,
1325.625,-210.0,,
1325.64,-210.0,,
1325.655,-70.5,,
1325.67,-210.0,,
1325.685,-210.0,,
1325.699,-78.04,,
1325.714,-75.14,,
1325.729,-76.47,,
1325.745,-210.0,,
1325.76,-74.82,,
1325.775,-69.93,,
1325.79,-210.0,,
1325.805,-210.0,,
1325.82,-70.83,,
1325.834,-75.36,,
1325.849,-210.0,,
1325.865,-210.0,,
1325.88,-69.5,,
1325.895,-68.12,,
1325.91,-76.85,,
1325.925,-75.79,,
1325.94,-66.74,,
1325.955,-68.84,,
1325.97,-210.0,,
1325.984,-72.38,,
1326.0,-66.66,,
1326.015,-74.56,,
1326.03,-210.0,,
1326.045,-69.58,,
1326.06,-68.62,,
1326.075,-210.0,,
1326.09,-85.77,,
1326.105,-67.95,,
1326.12,-70.46,,
1326.135,-210.0,,
1326.15,-77.32,,
1326.165,-69.33,,
1326.18,-74.32,,
1326.195,-210.0,,
1326.21,-70.92,,
1326.225,-69.05,,
1326.24,-74.01,,
1326.255,-210.0,,
1326.27,-69.66,,
1326.285,-73.59,,
1326.3,-69.93,,
1326.315,-69.04,,
1326.33,-68.79,,
1326.345,-66.59,,
1326.36,-66.18,,
1326.375,-68.97,,
1326.39,-68.33,,
1326.405,-65.05,,
1326.42,-67.19,,
1326.435,-70.5,,
1326.45,-67.78,,
1326.465,-64.89,,
1326.48,-68.41,,
1326.495,-69.29,,
1326.51,-64.71,,
1326.525,-63.94,,
1326.54,-65.81,,
1326.555,-66.01,,
1326.57,-63.19,,
1326.585,-64.03,,
1326.6,-65.69,,
1326.615,-64.24,,
1326.63,-62.69,,
1326.645,-64.61,,
1326.66,-67.13,,
1326.675,-64.58,,
1326.69,-64.23,,
1326.705,-66.24,,
1326.72,-65.69,,
1326.735,-66.09,,
1326.75,-66.77,,
1326.765,-66.83,,
1326.78,-66.17,,
1326.795,-65.65,,
1326.81,-65.26,,
1326.825,-65.71,,
1326.84,-65.54,,
1326.855,-64.7,,
1326.87,-65.57,,
1326.885,-65.71,,
1326.9,-65.96,,
1326.915,-66.2,,
1326.93,-66.86,,
1326.945,-67.25,,
1326.96,-66.25,,
1326.975,-64.21,,
1326.99,-67.46,,
1327.005,-76.76,,
1327.02,-66.49,,
1327.035,-65.95,,
1327.05,-71.01,,
1327.065,-69.6,,
1327.08,-66.06,,
1327.095,-67.09,,
1327.11,-75.27,,
1327.125,-67.07,,
1327.14,-65.02,,
1327.155,-66.55,,
1327.17,-68.34,,
1327.185,-65.32,,
1327.2,-65.11,,
1327.215,-68.98,,
1327.23,-67.93,,
1327.245,-64.66,,
1327.26,-65.63,,
1327.275,-70.74,,
1327.29,-67.71,,
1327.305,-66.47,,
1327.32,-70.81,,
1327.335,-75.33,,
1327.35,-80.19,,
1327.365,-210.0,,
1327.38,-210.0,,
1327.395,-78.38,,
1327.41,-210.0,,
1327.425,-210.0,,
1327.44,-210.0,,
1327.455,-210.0,,
1327.47,-210.0,,
1327.485,-210.0,,
1327.5,-210.0,,
1327.515,-210.0,,
1327.53,-210.0,,
1327.545,-210.0,,
1327.56,-210.0,,
1327.575,-210.0,,
1327.59,-210.0,,
1327.605,-210.0,,
1327.62,-210.0,,
1327.635,-210.0,,
1327.65,-210.0,,
1327.665,-210.0,,
1327.68,-210.0,,
1327.695,-210.0,,
1327.71,-210.0,,
1327.725,-210.0,,
1327.74,-210.0,,
1327.755,-210.0,,
1327.77,-91.65,,
1327.785,-210.0,,
1327.8,-210.0,,
1327.815,-210.0,,
1327.83,-210.0,,
1327.845,-210.0,,
1327.86,-210.0,,
1327.875,-210.0,,
1327.89,-210.0,,
1327.905,-210.0,,
1327.92,-210.0,,
1327.935,-210.0,,
1327.95,-210.0,,
1327.965,-210.0,,
1327.98,-210.0,,
1327.995,-210.0,,
1328.01,-210.0,,
1328.025,-210.0,,
1328.04,-210.0,,
1328.055,-210.0,,
1328.07,-210.0,,
1328.085,-210.0,,
1328.1,-210.0,,
1328.115,-210.0,,
1328.13,-210.0,,
1328.145,-210.0,,
1328.16,-210.0,,
1328.175,-210.0,,
1328.19,-210.0,,
1328.205,-210.0,,
1328.22,-210.0,,
1328.235,-210.0,,
1328.25,-210.0,,
1328.265,-210.0,,
1328.28,-210.0,,
1328.295,-210.0,,
1328.31,-210.0,,
1328.325,-210.0,,
1328.34,-210.0,,
1328.355,-210.0,,
1328.37,-210.0,,
1328.385,-210.0,,
1328.4,-210.0,,
1328.415,-210.0,,
1328.43,-210.0,,
1328.445,-210.0,,
1328.46,-210.0,,
1328.475,-210.0,,
1328.49,-210.0,,
1328.505,-210.0,,
1328.52,-210.0,,
1328.535,-210.0,,
1328.55,-210.0,,
1328.565,-210.0,,
1328.58,-210.0,,
1328.595,-210.0,,
1328.61,-210.0,,
1328.625,-96.08,,
1328.64,-210.0,,
1328.655,-210.0,,
1328.67,-75.16,,
1328.685,-75.01,,
1328.7,-210.0,,
1328.715,-210.0,,
1328.73,-210.0,,
1328.745,-210.0,,
1328.76,-75.03,,
1328.775,-210.0,,
1328.79,-210.0,,
1328.805,-82.86,,
1328.82,-210.0,,
1328.835,-210.0,,
1328.85,-210.0,,
1328.865,-210.0,,
1328.88,-210.0,,
1328.895,-210.0,,
1328.91,-210.0,,
1328.925,-210.0,,
1328.94,-210.0,,
1328.955,-210.0,,
1328.97,-210.0,,
1328.985,-210.0,,
1329.0,-210.0,,
1329.015,-77.4,,
1329.03,-81.06,,
1329.045,-210.0,,
1329.06,-210.0,,
1329.075,-74.03,,
1329.09,-210.0,,
1329.105,-210.0,,
1329.12,-210.0,,
1329.135,-210.0,,
1329.15,-210.0,,
1329.165,-210.0,,
1329.18,-70.74,,
1329.195,-71.6,,
1329.21,-68.0,,
1329.225,-66.45,,
1329.24,-68.59,,
1329.255,-68.04,,
1329.27,-65.17,,
1329.285,-65.12,,
1329.3,-67.35,,
1329.315,-65.49,,
1329.33,-64.5,,
1329.345,-65.58,,
1329.36,-67.22,,
1329.375,-66.18,,
1329.39,-66.15,,
1329.405,-66.37,,
1329.42,-64.52,,
1329.435,-65.23,,
1329.45,-66.58,,
1329.465,-65.24,,
1329.48,-64.82,,
1329.495,-66.0,,
1329.51,-67.03,,
1329.525,-65.18,,
1329.54,-65.3,,
1329.555,-65.22,,
1329.57,-65.61,,
1329.585,-64.03,,
1329.6,-64.73,,
1329.615,-65.8,,
1329.63,-65.42,,
1329.645,-64.78,,
1329.66,-65.91,,
1329.675,-66.83,,
1329.69,-65.59,,
1329.705,-65.9,,
1329.72,-66.79,,
1329.735,-65.96,,
1329.75,-64.89,,
1329.765,-67.21,,
1329.78,-68.74,,
1329.795,-66.17,,
1329.81,-68.86,,
1329.825,-65.45,,
1329.84,-64.6,,
1329.855,-66.68,,
1329.87,-67.14,,
1329.885,-65.75,,
1329.9,-65.05,,
1329.915,-66.54,,
1329.93,-66.91,,
1329.945,-64.63,,
1329.96,-65.9,,
1329.975,-66.27,,
1329.99,-65.76,,
1330.005,-66.15,,
1330.02,-67.04,,
1330.035,-68.51,,
1330.05,-66.97,,
1330.065,-67.38,,
1330.08,-67.61,,
1330.095,-67.08,,
1330.11,-66.18,,
1330.125,-67.57,,
1330.14,-66.54,,
1330.155,-66.57,,
1330.17,-66.56,,
1330.185,-68.56,,
1330.2,-68.65,,
1330.215,-66.67,,
1330.23,-68.37,,
1330.245,-70.06,,
1330.26,-67.91,,
1330.275,-67.46,,
1330.29,-68.35,,
1330.305,-67.89,,
1330.32,-67.35,,
1330.335,-68.2,,
1330.35,-69.43,,
1330.365,-70.04,,
1330.38,-67.77,,
1330.395,-66.76,,
1330.41,-68.45,,
1330.425,-210.0,,
1330.44,-69.28,,
1330.455,-67.88,,
1330.47,-77.74,,
1330.485,-75.76,,
1330.5,-67.56,,
1330.515,-67.16,,
1330.53,-92.86,,
1330.545,-67.7,,
1330.56,-66.34,,
1330.575,-69.84,,
1330.59,-210.0,,
1330.605,-68.04,,
1330.62,-66.59,,
1330.635,-67.35,,
1330.65,-69.21,,
1330.665,-67.33,,
1330.68,-66.59,,
1330.695,-68.62,,
1330.71,-67.99,,
1330.725,-67.1,,
1330.74,-66.41,,
1330.755,-67.09,,
1330.77,-66.98,,
1330.785,-65.72,,
1330.8,-65.61,,
1330.815,-64.93,,
1330.83,-65.93,,
1330.845,-66.54,,
1330.86,-65.69,,
1330.875,-65.29,,
1330.89,-65.17,,
1330.905,-65.56,,
1330.92,-65.63,,
1330.935,-65.37,,
1330.95,-66.14,,
1330.965,-65.73,,
1330.98,-65.92,,
1330.995,-66.63,,
1331.01,-66.51,,
1331.025,-66.21,,
1331.04,-65.02,,
1331.055,-65.34,,
1331.07,-64.97,,
1331.085,-65.08,,
1331.1,-65.18,,
1331.115,-65.43,,
1331.13,-64.99,,
1331.145,-64.59,,
1331.16,-65.38,,
1331.175,-66.09,,
1331.19,-65.4,,
1331.205,-64.19,,
1331.22,-66.0,,
1331.235,-66.17,,
1331.25,-65.47,,
1331.265,-63.91,,
1331.28,-65.57,,
1331.295,-70.02,,
1331.31,-67.57,,
1331.325,-65.15,,
1331.34,-67.27,,
1331.355,-73.35,,
1331.37,-67.27,,
1331.385,-65.62,,
1331.4,-68.3,,
1331.415,-72.73,,
1331.43,-65.68,,
1331.445,-66.54,,
1331.46,-71.99,,
1331.475,-67.35,,
1331.49,-65.22,,
1331.505,-67.01,,
1331.52,-76.94,,
1331.535,-66.42,,
1331.55,-66.5,,
1331.565,-77.45,,
1331.58,-71.72,,
1331.595,-66.8,,
1331.61,-67.96,,
1331.625,-78.0,,
1331.64,-210.0,,
1331.655,-68.85,,
1331.67,-69.82,,
1331.685,-210.0,,
1331.7,-73.42,,
1331.715,-68.07,,
1331.73,-71.25,,
1331.745,-77.12,,
1331.76,-72.03,,
1331.775,-69.07,,
1331.79,-77.36,,
1331.805,-210.0,,
1331.82,-77.39,,
1331.835,-76.46,,
1331.85,-210.0,,
1331.865,-80.24,,
1331.88,-72.52,,
1331.895,-82.95,,
1331.91,-210.0,,
1331.925,-73.36,,
1331.94,-68.24,,
1331.955,-72.35,,
1331.97,-210.0,,
1331.985,-74.79,,
1332.0,-67.87,,
1332.015,-73.8,,
1332.03,-72.11,,
1332.045,-69.45,,
1332.06,-69.65,,
1332.075,-80.08,,
1332.09,-70.99,,
1332.105,-67.61,,
1332.12,-70.12,,
1332.135,-73.26,,
1332.15,-70.41,,
1332.165,-68.89,,
1332.18,-70.71,,
1332.195,-70.63,,
1332.21,-71.91,,
1332.225,-79.21,,
1332.24,-72.24,,
1332.255,-69.44,,
1332.27,-210.0,,
1332.285,-210.0,,
1332.3,-68.89,,
1332.315,-68.96,,
1332.33,-210.0,,
1332.345,-210.0,,
1332.36,-66.64,,
1332.375,-66.6,,
1332.39,-71.88,,
1332.405,-76.77,,
1332.42,-68.09,,
1332.435,-68.03,,
1332.45,-68.92,,
1332.465,-68.85,,
1332.48,-67.55,,
1332.495,-70.11,,
1332.51,-75.24,,
1332.525,-69.15,,
1332.54,-67.91,,
1332.555,-74.82,,
1332.57,-73.02,,
1332.585,-67.51,,
1332.6,-67.66,,
1332.615,-69.2,,
1332.63,-68.22,,
1332.645,-66.03,,
1332.66,-67.87,,
1332.675,-68.0,,
1332.69,-65.79,,
1332.705,-65.64,,
1332.72,-67.57,,
1332.735,-66.79,,
1332.75,-65.88,,
1332.765,-66.45,,
1332.78,-67.38,,
1332.795,-67.28,,
1332.81,-67.01,,
1332.825,-67.47,,
1332.84,-67.48,,
1332.855,-67.92,,
1332.87,-68.12,,
1332.885,-69.73,,
1332.9,-68.25,,
1332.915,-67.42,,
1332.93,-67.38,,
1332.945,-68.86,,
1332.96,-68.21,,
1332.975,-67.37,,
1332.99,-66.52,,
1333.005,-69.22,,
1333.02,-67.52,,
1333.035,-68.21,,
1333.05,-68.14,,
1333.065,-69.94,,
1333.08,-67.67,,
1333.095,-68.26,,
1333.11,-70.39,,
1333.125,-70.45,,
1333.141,-69.66,,
1333.155,-70.57,,
1333.17,-73.61,,
1333.185,-73.1,,
1333.2,-72.65,,
1333.215,-210.0,,
1333.23,-69.88,,
1333.245,-69.31,,
1333.26,-68.8,,
1333.276,-69.93,,
1333.29,-68.08,,
1333.305,-67.68,,
1333.32,-67.2,,
1333.335,-68.11,,
1333.35,-67.97,,
1333.365,-69.22,,
1333.38,-69.58,,
1333.396,-72.51,,
1333.411,-70.37,,
1333.426,-68.4,,
1333.44,-71.32,,
1333.455,-210.0,,
1333.47,-71.83,,
1333.485,-69.55,,
1333.5,-76.02,,
1333.516,-78.06,,
1333.531,-68.54,,
1333.546,-71.9,,
1333.561,-210.0,,
1333.575,-69.35,,
1333.59,-70.7,,
1333.605,-75.4,,
1333.62,-210.0,,
1333.635,-70.77,,
1333.651,-74.9,,
1333.666,-210.0,,
1333.681,-210.0,,
1333.696,-210.0,,
1333.711,-210.0,,
1333.725,-210.0,,
1333.74,-210.0,,
1333.755,-210.0,,
1333.771,-210.0,,
1333.786,-210.0,,
1333.801,-210.0,,
1333.816,-86.88,,
1333.831,-210.0,,
1333.846,-210.0,,
1333.86,-73.35,,
1333.875,-77.82,,
1333.891,-210.0,,
1333.906,-210.0,,
1333.921,-71.05,,
1333.936,-210.0,,
1333.951,-210.0,,
1333.966,-210.0,,
1333.981,-210.0,,
1333.996,-210.0,,
1334.01,-210.0,,
1334.026,-210.0,,
1334.041,-210.0,,
1334.056,-210.0,,
1334.071,-210.0,,
1334.086,-78.42,,
1334.101,-210.0,,
1334.116,-210.0,,
1334.131,-210.0,,
1334.146,-76.76,,
1334.161,-210.0,,
1334.176,-210.0,,
1334.191,-210.0,,
1334.206,-76.29,,
1334.221,-210.0,,
1334.236,-210.0,,
1334.251,-74.26,,
1334.266,-210.0,,
1334.281,-210.0,,
1334.296,-210.0,,
1334.311,-77.17,,
1334.326,-210.0,,
1334.341,-210.0,,
1334.356,-210.0,,
1334.371,-82.7,,
1334.386,-210.0,,
1334.401,-210.0,,
1334.416,-69.65,,
1334.431,-72.73,,
1334.446,-210.0,,
1334.461,-78.02,,
1334.476,-70.75,,
1334.491,-210.0,,
1334.506,-210.0,,
1334.521,-70.23,,
1334.536,-72.52,,
1334.551,-210.0,,
1334.566,-210.0,,
1334.581,-72.21,,
1334.596,-70.31,,
1334.611,-210.0,,
1334.626,-73.27,,
1334.641,-71.75,,
1334.656,-73.37,,
1334.671,-210.0,,
1334.686,-69.51,,
1334.701,-68.44,,
1334.716,-210.0,,
1334.731,-80.52,,
1334.746,-70.83,,
1334.761,-70.25,,
1334.776,-74.93,,
1334.791,-69.5,,
1334.806,-67.8,,
1334.821,-75.68,,
1334.836,-210.0,,
1334.851,-72.72,,
1334.866,-73.38,,
1334.881,-210.0,,
1334.896,-210.0,,
1334.911,-74.04,,
1334.926,-75.48,,
1334.941,-210.0,,
1334.956,-71.29,,
1334.971,-71.37,,
1334.986,-75.35,,
1335.001,-210.0,,
1335.016,-71.57,,
1335.031,-70.24,,
1335.046,-210.0,,
1335.061,-76.6,,
1335.076,-67.42,,
1335.091,-69.81,,
1335.106,-210.0,,
1335.121,-70.76,,
1335.136,-67.93,,
1335.151,-70.35,,
1335.166,-210.0,,
1335.181,-67.83,,
1335.196,-67.31,,
1335.211,-73.66,,
1335.226,-75.78,,
1335.241,-67.68,,
1335.256,-68.49,,
1335.271,-210.0,,
1335.286,-70.03,,
1335.301,-68.06,,
1335.316,-78.61,,
1335.331,-210.0,,
1335.346,-72.53,,
1335.361,-70.37,,
1335.376,-210.0,,
1335.391,-210.0,,
1335.406,-70.83,,
1335.421,-210.0,,
1335.436,-210.0,,
1335.451,-72.39,,
1335.466,-79.84,,
1335.481,-210.0,,
1335.496,-210.0,,
1335.511,-74.91,,
1335.526,-210.0,,
1335.541,-210.0,,
1335.556,-210.0,,
1335.571,-76.93,,
1335.586,-210.0,,
1335.601,-210.0,,
1335.616,-210.0,,
1335.631,-210.0,,
1335.646,-210.0,,
1335.661,-210.0,,
1335.676,-72.95,,
1335.691,-210.0,,
1335.706,-210.0,,
1335.721,-72.59,,
1335.736,-68.63,,
1335.751,-210.0,,
1335.766,-210.0,,
1335.781,-75.1,,
1335.796,-74.95,,
1335.811,-210.0,,
1335.826,-210.0,,
1335.841,-69.84,,
1335.856,-210.0,,
1335.871,-210.0,,
1335.886,-78.46,,
1335.901,-67.71,,
1335.916,-73.8,,
1335.931,-78.31,,
1335.946,-69.95,,
1335.961,-71.5,,
1335.976,-72.8,,
1335.991,-70.59,,
1336.006,-66.88,,
1336.021,-69.05,,
1336.036,-70.93,,
1336.051,-68.32,,
1336.066,-66.14,,
1336.081,-70.08,,
1336.096,-76.17,,
1336.111,-67.33,,
1336.126,-67.55,,
1336.141,-85.08,,
1336.156,-79.81,,
1336.171,-66.76,,
1336.186,-68.23,,
1336.201,-210.0,,
1336.216,-72.87,,
1336.231,-67.73,,
1336.246,-70.91,,
1336.261,-210.0,,
1336.276,-68.65,,
1336.291,-67.22,,
1336.306,-210.0,,
1336.321,-73.79,,
1336.336,-66.42,,
1336.351,-67.67,,
1336.366,-73.69,,
1336.381,-69.32,,
1336.396,-65.87,,
1336.411,-71.01,,
1336.426,-67.03,,
1336.441,-66.17,,
1336.456,-67.84,,
1336.471,-73.82,,
1336.486,-66.82,,
1336.501,-67.64,,
1336.516,-70.93,,
1336.531,-68.95,,
1336.546,-65.92,,
1336.561,-66.13,,
1336.576,-70.78,,
1336.591,-66.15,,
1336.606,-65.02,,
1336.621,-66.32,,
1336.636,-67.23,,
1336.651,-65.53,,
1336.666,-64.97,,
1336.681,-67.66,,
1336.696,-66.78,,
1336.711,-64.38,,
1336.726,-66.4,,
1336.741,-69.7,,
1336.756,-67.38,,
1336.771,-66.08,,
1336.786,-67.27,,
1336.801,-70.54,,
1336.816,-67.06,,
1336.831,-66.94,,
1336.846,-68.16,,
1336.861,-69.01,,
1336.876,-65.78,,
1336.891,-66.01,,
1336.906,-68.73,,
1336.921,-67.97,,
1336.936,-67.63,,
1336.951,-71.87,,
1336.966,-210.0,,
1336.981,-73.58,,
1336.996,-73.07,,
1337.011,-210.0,,
1337.026,-210.0,,
1337.041,-84.36,,
1337.056,-210.0,,
1337.071,-210.0,,
1337.086,-210.0,,
1337.101,-76.4,,
1337.116,-210.0,,
1337.131,-210.0,,
1337.146,-210.0,,
1337.161,-73.6,,
1337.176,-210.0,,
1337.191,-210.0,,
1337.206,-71.75,,
1337.221,-76.31,,
1337.236,-210.0,,
1337.251,-210.0,,
1337.266,-70.37,,
1337.281,-72.95,,
1337.296,-210.0,,
1337.311,-210.0,,
1337.326,-73.95,,
1337.341,-210.0,,
1337.356,-210.0,,
1337.371,-210.0,,
1337.386,-75.39,,
1337.401,-210.0,,
1337.416,-210.0,,
1337.431,-210.0,,
1337.446,-210.0,,
1337.461,-210.0,,
1337.476,-210.0,,
1337.491,-69.98,,
1337.506,-210.0,,
1337.521,-210.0,,
1337.536,-71.59,,
1337.551,-71.89,,
1337.566,-210.0,,
1337.581,-210.0,,
1337.596,-210.0,,
1337.611,-210.0,,
1337.626,-210.0,,
1337.641,-210.0,,
1337.656,-210.0,,
1337.671,-210.0,,
1337.686,-210.0,,
1337.701,-210.0,,
1337.716,-210.0,,
1337.731,-210.0,,
1337.746,-210.0,,
1337.761,-210.0,,
1337.776,-210.0,,
1337.791,-210.0,,
1337.806,-210.0,,
1337.821,-210.0,,
1337.836,-210.0,,
1337.851,-210.0,,
1337.866,-210.0,,
1337.881,-210.0,,
1337.896,-210.0,,
1337.911,-210.0,,
1337.926,-210.0,,
1337.941,-210.0,,
1337.956,-210.0,,
1337.971,-210.0,,
1337.986,-210.0,,
1338.001,-210.0,,
1338.016,-210.0,,
1338.031,-210.0,,
1338.046,-210.0,,
1338.061,-210.0,,
1338.076,-210.0,,
1338.091,-210.0,,
1338.106,-210.0,,
1338.121,-210.0,,
1338.136,-210.0,,
1338.151,-210.0,,
1338.166,-210.0,,
1338.181,-210.0,,
1338.196,-210.0,,
1338.211,-210.0,,
1338.226,-210.0,,
1338.241,-210.0,,
1338.256,-210.0,,
1338.271,-210.0,,
1338.286,-210.0,,
1338.301,-210.0,,
1338.316,-210.0,,
1338.331,-210.0,,
1338.346,-210.0,,
1338.361,-210.0,,
1338.376,-210.0,,
1338.391,-210.0,,
1338.406,-210.0,,
1338.421,-210.0,,
1338.436,-210.0,,
1338.451,-210.0,,
1338.466,-210.0,,
1338.481,-210.0,,
1338.496,-210.0,,
1338.511,-210.0,,
1338.526,-210.0,,
1338.541,-210.0,,
1338.556,-210.0,,
1338.571,-210.0,,
1338.586,-210.0,,
1338.601,-210.0,,
1338.616,-210.0,,
1338.631,-210.0,,
1338.646,-210.0,,
1338.661,-210.0,,
1338.676,-210.0,,
1338.691,-77.13,,
1338.706,-210.0,,
1338.721,-210.0,,
1338.736,-210.0,,
1338.751,-70.01,,
1338.766,-210.0,,
1338.781,-210.0,,
1338.796,-70.73,,
1338.811,-72.24,,
1338.826,-210.0,,
1338.841,-210.0,,
1338.856,-71.08,,
1338.871,-210.0,,
1338.886,-210.0,,
1338.901,-210.0,,
1338.916,-78.23,,
1338.931,-210.0,,
1338.946,-210.0,,
1338.961,-93.36,,
1338.976,-210.0,,
1338.991,-210.0,,
1339.006,-210.0,,
1339.021,-78.8,,
1339.036,-210.0,,
1339.051,-210.0,,
1339.066,-210.0,,
1339.081,-72.96,,
1339.096,-210.0,,
1339.111,-210.0,,
1339.126,-210.0,,
1339.141,-210.0,,
1339.156,-210.0,,
1339.171,-70.74,,
1339.186,-210.0,,
1339.201,-210.0,,
1339.216,-210.0,,
1339.231,-69.89,,
1339.246,-75.3,,
1339.261,-75.1,,
1339.276,-73.96,,
1339.291,-71.98,,
1339.306,-74.6,,
1339.321,-210.0,,
1339.336,-75.29,,
1339.351,-210.0,,
1339.366,-85.14,,
1339.381,-78.06,,
1339.396,-72.6,,
1339.411,-210.0,,
1339.426,-210.0,,
1339.441,-210.0,,
1339.456,-210.0,,
1339.471,-210.0,,
1339.486,-210.0,,
1339.501,-210.0,,
1339.516,-210.0,,
1339.531,-210.0,,
1339.546,-210.0,,
1339.561,-210.0,,
1339.576,-210.0,,
1339.591,-210.0,,
1339.606,-210.0,,
1339.621,-210.0,,
1339.636,-210.0,,
1339.651,-210.0,,
1339.666,-210.0,,
1339.681,-210.0,,
1339.696,-210.0,,
1339.711,-210.0,,
1339.726,-210.0,,
1339.741,-210.0,,
1339.756,-210.0,,
1339.771,-210.0,,
1339.786,-210.0,,
1339.801,-210.0,,
1339.816,-210.0,,
1339.831,-210.0,,
1339.846,-210.0,,
1339.861,-210.0,,
1339.876,-210.0,,
1339.891,-210.0,,
1339.906,-210.0,,
1339.921,-210.0,,
1339.936,-210.0,,
1339.951,-210.0,,
1339.966,-210.0,,
1339.981,-210.0,,
1339.996,-210.0,,
1340.011,-210.0,,
1340.026,-210.0,,
1340.041,-210.0,,
1340.056,-210.0,,
1340.071,-210.0,,
1340.086,-210.0,,
1340.101,-210.0,,
1340.116,-210.0,,
1340.131,-210.0,,
1340.146,-210.0,,
1340.161,-210.0,,
1340.176,-210.0,,
1340.191,-210.0,,
1340.206,-210.0,,
1340.221,-210.0,,
1340.236,-210.0,,
1340.251,-210.0,,
1340.266,-210.0,,
1340.281,-210.0,,
1340.296,-210.0,,
1340.311,-210.0,,
1340.326,-210.0,,
1340.341,-210.0,,
1340.356,-210.0,,
1340.371,-210.0,,
1340.386,-210.0,,
1340.401,-210.0,,
1340.416,-210.0,,
1340.431,-210.0,,
1340.446,-210.0,,
1340.461,-210.0,,
1340.476,-210.0,,
1340.491,-210.0,,
1340.506,-210.0,,
1340.521,-210.0,,
1340.536,-210.0,,
1340.551,-210.0,,
1340.566,-210.0,,
1340.581,-210.0,,
1340.596,-210.0,,
1340.611,-210.0,,
1340.626,-210.0,,
1340.641,-210.0,,
1340.656,-210.0,,
1340.671,-210.0,,
1340.686,-210.0,,
1340.701,-210.0,,
1340.716,-210.0,,
1340.731,-210.0,,
1340.746,-210.0,,
1340.761,-210.0,,
1340.776,-210.0,,
1340.791,-210.0,,
1340.806,-210.0,,
1340.821,-210.0,,
1340.836,-210.0,,
1340.851,-210.0,,
1340.866,-210.0,,
1340.881,-74.63,,
1340.896,-74.22,,
1340.911,-210.0,,
1340.926,-210.0,,
1340.941,-75.94,,
1340.956,-210.0,,
1340.971,-210.0,,
1340.986,-210.0,,
1341.001,-210.0,,
1341.016,-210.0,,
1341.031,-210.0,,
1341.046,-210.0,,
1341.061,-210.0,,
1341.076,-210.0,,
1341.091,-210.0,,
1341.106,-210.0,,
1341.121,-210.0,,
1341.136,-210.0,,
1341.151,-77.63,,
1341.167,-210.0,,
1341.181,-210.0,,
1341.196,-210.0,,
1341.211,-69.38,,
1341.226,-210.0,,
1341.241,-210.0,,
1341.256,-97.95,,
1341.271,-73.02,,
1341.286,-210.0,,
1341.302,-210.0,,
1341.316,-70.67,,
1341.331,-86.95,,
1341.346,-210.0,,
1341.361,-210.0,,
1341.376,-77.22,,
1341.391,-210.0,,
1341.406,-210.0,,
1341.422,-210.0,,
1341.437,-210.0,,
1341.452,-72.6,,
1341.466,-210.0,,
1341.481,-210.0,,
1341.496,-210.0,,
1341.511,-71.33,,
1341.526,-210.0,,
1341.542,-210.0,,
1341.557,-74.53,,
1341.572,-210.0,,
1341.587,-210.0,,
1341.601,-77.41,,
1341.616,-210.0,,
1341.631,-210.0,,
1341.646,-210.0,,
1341.661,-210.0,,
1341.677,-210.0,,
1341.692,-210.0,,
1341.707,-210.0,,
1341.722,-210.0,,
1341.737,-210.0,,
1341.751,-210.0,,
1341.766,-210.0,,
1341.781,-210.0,,
1341.797,-210.0,,
1341.812,-210.0,,
1341.827,-210.0,,
1341.842,-210.0,,
1341.857,-210.0,,
1341.872,-210.0,,
1341.887,-210.0,,
1341.901,-210.0,,
1341.917,-210.0,,
1341.932,-210.0,,
1341.947,-210.0,,
1341.962,-210.0,,
1341.977,-210.0,,
1341.992,-210.0,,
1342.007,-210.0,,
1342.022,-71.96,,
1342.036,-210.0,,
1342.052,-210.0,,
1342.067,-210.0,,
1342.082,-210.0,,
1342.097,-210.0,,
1342.112,-210.0,,
1342.127,-210.0,,
1342.142,-210.0,,
1342.157,-210.0,,
1342.172,-210.0,,
1342.187,-210.0,,
1342.202,-210.0,,
1342.217,-210.0,,
1342.232,-210.0,,
1342.247,-210.0,,
1342.262,-210.0,,
1342.277,-210.0,,
1342.292,-210.0,,
1342.307,-210.0,,
1342.322,-210.0,,
1342.337,-210.0,,
1342.352,-210.0,,
1342.367,-210.0,,
1342.382,-210.0,,
1342.397,-210.0,,
1342.412,-210.0,,
1342.427,-210.0,,
1342.442,-210.0,,
1342.457,-210.0,,
1342.472,-210.0,,
1342.487,-210.0,,
1342.502,-210.0,,
1342.517,-210.0,,
1342.532,-210.0,,
1342.547,-210.0,,
1342.562,-210.0,,
1342.577,-210.0,,
1342.592,-210.0,,
1342.607,-210.0,,
1342.622,-210.0,,
1342.637,-210.0,,
1342.652,-210.0,,
1342.667,-210.0,,
1342.682,-210.0,,
1342.697,-210.0,,
1342.712,-210.0,,
1342.727,-210.0,,
1342.742,-210.0,,
1342.757,-83.72,,
1342.772,-210.0,,
1342.787,-210.0,,
1342.802,-210.0,,
1342.817,-210.0,,
1342.832,-210.0,,
1342.847,-210.0,,
1342.862,-210.0,,
1342.877,-210.0,,
1342.892,-210.0,,
1342.907,-210.0,,
1342.922,-210.0,,
1342.937,-210.0,,
1342.952,-210.0,,
1342.967,-210.0,,
1342.982,-210.0,,
1342.997,-210.0,,
1343.012,-210.0,,
1343.027,-210.0,,
1343.042,-210.0,,
1343.057,-210.0,,
1343.072,-210.0,,
1343.087,-210.0,,
1343.102,-210.0,,
1343.117,-210.0,,
1343.132,-210.0,,
1343.147,-210.0,,
1343.162,-210.0,,
1343.177,-210.0,,
1343.192,-210.0,,
1343.207,-210.0,,
1343.222,-210.0,,
1343.237,-210.0,,
1343.252,-210.0,,
1343.267,-210.0,,
1343.282,-210.0,,
1343.297,-210.0,,
1343.312,-210.0,,
1343.327,-210.0,,
1343.342,-210.0,,
1343.357,-210.0,,
1343.372,-210.0,,
1343.387,-210.0,,
1343.402,-210.0,,
1343.417,-210.0,,
1343.432,-210.0,,
1343.447,-210.0,,
1343.462,-210.0,,
1343.477,-210.0,,
1343.492,-210.0,,
1343.507,-210.0,,
1343.522,-72.08,,
1343.537,-72.69,,
1343.552,-210.0,,
1343.567,-210.0,,
1343.582,-69.81,,
1343.597,-210.0,,
1343.612,-210.0,,
1343.627,-210.0,,
1343.642,-73.02,,
1343.657,-210.0,,
1343.672,-210.0,,
1343.687,-210.0,,
1343.702,-210.0,,
1343.717,-210.0,,
1343.732,-210.0,,
1343.747,-210.0,,
1343.762,-210.0,,
1343.777,-210.0,,
1343.792,-210.0,,
1343.807,-210.0,,
1343.822,-210.0,,
1343.837,-210.0,,
1343.852,-210.0,,
1343.867,-210.0,,
1343.882,-70.68,,
1343.897,-75.28,,
1343.912,-210.0,,
1343.927,-73.46,,
1343.942,-71.18,,
1343.957,-69.03,,
1343.972,-73.82,,
1343.987,-75.46,,
1344.002,-71.45,,
1344.017,-69.79,,
1344.032,-210.0,,
1344.047,-210.0,,
1344.062,-73.16,,
1344.077,-80.19,,
1344.092,-76.49,,
1344.107,-210.0,,
1344.122,-210.0,,
1344.137,-74.32,,
1344.152,-75.0,,
1344.167,-210.0,,
1344.182,-210.0,,
1344.197,-70.93,,
1344.212,-210.0,,
1344.227,-210.0,,
1344.242,-73.61,,
1344.257,-71.96,,
1344.272,-210.0,,
1344.287,-210.0,,
1344.302,-70.76,,
1344.317,-210.0,,
1344.332,-210.0,,
1344.347,-210.0,,
1344.362,-71.76,,
1344.377,-71.9,,
1344.392,-71.96,,
1344.407,-71.94,,
1344.422,-71.09,,
1344.437,-70.68,,
1344.452,-70.83,,
1344.467,-69.02,,
1344.482,-71.77,,
1344.497,-68.5,,
1344.512,-66.4,,
1344.527,-71.41,,
1344.542,-210.0,,
1344.557,-68.05,,
1344.572,-69.03,,
1344.587,-210.0,,
1344.602,-76.1,,
1344.617,-67.93,,
1344.632,-72.16,,
1344.647,-210.0,,
1344.662,-84.49,,
1344.677,-69.2,,
1344.692,-210.0,,
1344.707,-210.0,,
1344.722,-71.12,,
1344.737,-68.36,,
1344.752,-210.0,,
1344.767,-210.0,,
1344.782,-73.3,,
1344.797,-68.64,,
1344.812,-68.28,,
1344.827,-72.66,,
1344.842,-72.07,,
1344.857,-67.68,,
1344.872,-70.15,,
1344.887,-210.0,,
1344.902,-210.0,,
1344.917,-67.64,,
1344.932,-74.02,,
1344.947,-81.54,,
1344.962,-210.0,,
1344.977,-80.91,,
1344.992,-70.24,,
1345.007,-77.95,,
1345.022,-210.0,,
1345.037,-71.26,,
1345.052,-66.24,,
1345.067,-69.41,,
1345.082,-70.59,,
1345.097,-67.05,,
1345.112,-67.16,,
1345.127,-68.34,,
1345.142,-69.03,,
1345.157,-69.33,,
1345.172,-71.9,,
1345.187,-69.5,,
1345.202,-69.88,,
1345.217,-69.29,,
1345.232,-67.63,,
1345.247,-70.33,,
1345.262,-210.0,,
1345.277,-71.54,,
1345.292,-68.78,,
1345.307,-74.93,,
1345.322,-73.66,,
1345.337,-68.21,,
1345.352,-68.23,,
1345.367,-71.61,,
1345.382,-210.0,,
1345.397,-210.0,,
1345.412,-71.66,,
1345.427,-88.93,,
1345.442,-210.0,,
1345.457,-210.0,,
1345.472,-71.6,,
1345.487,-74.53,,
1345.502,-210.0,,
1345.517,-210.0,,
1345.532,-210.0,,
1345.547,-210.0,,
1345.562,-210.0,,
1345.577,-210.0,,
1345.592,-210.0,,
1345.607,-210.0,,
1345.622,-210.0,,
1345.637,-210.0,,
1345.652,-210.0,,
1345.667,-210.0,,
1345.682,-210.0,,
1345.697,-210.0,,
1345.712,-210.0,,
1345.727,-210.0,,
1345.742,-210.0,,
1345.757,-210.0,,
1345.772,-210.0,,
1345.787,-210.0,,
1345.802,-210.0,,
1345.817,-210.0,,
1345.832,-210.0,,
1345.847,-210.0,,
1345.862,-210.0,,
1345.877,-210.0,,
1345.892,-210.0,,
1345.907,-210.0,,
1345.922,-210.0,,
1345.937,-210.0,,
1345.952,-210.0,,
1345.967,-210.0,,
1345.982,-210.0,,
1345.997,-210.0,,
1346.012,-210.0,,
1346.027,-210.0,,
1346.042,-210.0,,
1346.057,-210.0,,
1346.072,-210.0,,
1346.087,-210.0,,
1346.102,-210.0,,
1346.117,-210.0,,
1346.132,-210.0,,
1346.147,-210.0,,
1346.162,-210.0,,
1346.177,-210.0,,
1346.192,-210.0,,
1346.207,-210.0,,
1346.222,-210.0,,
1346.237,-210.0,,
1346.252,-210.0,,
1346.267,-210.0,,
1346.282,-210.0,,
1346.297,-210.0,,
1346.312,-210.0,,
1346.327,-210.0,,
1346.342,-210.0,,
1346.357,-210.0,,
1346.372,-210.0,,
1346.387,-210.0,,
1346.402,-210.0,,
1346.417,-210.0,,
1346.432,-210.0,,
1346.447,-210.0,,
1346.462,-210.0,,
1346.477,-210.0,,
1346.492,-210.0,,
1346.507,-210.0,,
1346.522,-210.0,,
1346.537,-210.0,,
1346.552,-210.0,,
1346.567,-210.0,,
1346.582,-210.0,,
1346.597,-210.0,,
1346.612,-210.0,,
1346.627,-210.0,,
1346.642,-210.0,,
1346.657,-210.0,,
1346.672,-210.0,,
1346.687,-210.0,,
1346.702,-210.0,,
1346.717,-210.0,,
1346.732,-210.0,,
1346.747,-210.0,,
1346.762,-210.0,,
1346.777,-210.0,,
1346.792,-210.0,,
1346.807,-210.0,,
1346.822,-210.0,,
1346.837,-210.0,,
1346.852,-210.0,,
1346.867,-210.0,,
1346.882,-210.0,,
1346.897,-210.0,,
1346.912,-210.0,,
1346.927,-210.0,,
1346.942,-210.0,,
1346.957,-210.0,,
1346.972,-79.81,,
1346.987,-210.0,,
1347.002,-210.0,,
1347.017,-210.0,,
1347.032,-210.0,,
1347.047,-210.0,,
1347.062,-210.0,,
1347.077,-210.0,,
1347.092,-210.0,,
1347.107,-210.0,,
1347.122,-210.0,,
1347.137,-210.0,,
1347.152,-210.0,,
1347.167,-210.0,,
1347.182,-74.93,,
1347.197,-70.75,,
1347.212,-67.76,,
1347.227,-72.3,,
1347.242,-84.97,,
1347.257,-70.99,,
1347.272,-72.27,,
1347.287,-210.0,,
1347.302,-72.97,,
1347.317,-69.26,,
1347.332,-66.59,,
1347.347,-68.59,,
1347.362,-210.0,,
1347.377,-71.82,,
1347.392,-67.29,,
1347.407,-71.46,,
1347.422,-210.0,,
1347.437,-73.51,,
1347.452,-67.87,,
1347.467,-70.15,,
1347.482,-76.57,,
1347.497,-76.07,,
1347.512,-73.42,,
1347.527,-70.82,,
1347.542,-71.54,,
1347.557,-69.97,,
1347.572,-72.39,,
1347.587,-74.08,,
1347.602,-78.09,,
1347.617,-210.0,,
1347.632,-69.38,,
1347.647,-67.54,,
1347.662,-66.34,,
1347.677,-69.0,,
1347.692,-75.91,,
1347.707,-67.92,,
1347.722,-69.5,,
1347.737,-75.94,,
1347.752,-72.51,,
1347.767,-69.11,,
1347.782,-69.25,,
1347.797,-71.29,,
1347.812,-67.11,,
1347.827,-66.49,,
1347.842,-69.56,,
1347.857,-68.52,,
1347.872,-67.38,,
1347.887,-210.0,,
1347.902,-210.0,,
1347.917,-75.63,,
1347.932,-210.0,,
1347.947,-210.0,,
1347.962,-210.0,,
1347.977,-210.0,,
1347.992,-210.0,,
1348.007,-210.0,,
1348.022,-210.0,,
1348.037,-210.0,,
1348.052,-210.0,,
1348.067,-210.0,,
1348.082,-76.95,,
1348.097,-210.0,,
1348.112,-210.0,,
1348.127,-72.33,,
1348.142,-210.0,,
1348.157,-210.0,,
1348.172,-210.0,,
1348.187,-70.95,,
1348.202,-210.0,,
1348.217,-210.0,,
1348.232,-73.74,,
1348.247,-71.84,,
1348.262,-210.0,,
1348.277,-82.42,,
1348.292,-69.8,,
1348.307,-82.47,,
1348.322,-71.55,,
1348.337,-74.22,,
1348.352,-210.0,,
1348.367,-73.89,,
1348.382,-67.12,,
1348.397,-69.28,,
1348.412,-210.0,,
1348.427,-68.32,,
1348.442,-66.4,,
1348.457,-68.58,,
1348.472,-85.5,,
1348.487,-66.55,,
1348.502,-67.56,,
1348.517,-210.0,,
1348.532,-75.64,,
1348.547,-66.92,,
1348.562,-70.1,,
1348.577,-73.94,,
1348.592,-69.17,,
1348.607,-72.32,,
1348.622,-74.43,,
1348.637,-70.39,,
1348.652,-70.65,,
1348.667,-210.0,,
1348.682,-210.0,,
1348.697,-67.85,,
1348.712,-71.21,,
1348.727,-210.0,,
1348.742,-70.68,,
1348.757,-67.49,,
1348.772,-77.91,,
1348.787,-210.0,,
1348.802,-68.94,,
1348.817,-70.71,,
1348.832,-210.0,,
1348.847,-210.0,,
1348.862,-210.0,,
1348.877,-210.0,,
1348.892,-80.83,,
1348.907,-73.54,,
1348.922,-210.0,,
1348.937,-210.0,,
1348.952,-73.51,,
1348.967,-78.87,,
1348.982,-210.0,,
1348.997,-210.0,,
1349.012,-70.55,,
1349.027,-210.0,,
1349.042,-210.0,,
1349.057,-210.0,,
1349.072,-71.29,,
1349.087,-210.0,,
1349.102,-71.06,,
1349.117,-69.0,,
1349.132,-210.0,,
1349.147,-210.0,,
1349.162,-210.0,,
1349.177,-210.0,,
1349.193,-210.0,,
1349.207,-210.0,,
1349.222,-210.0,,
1349.237,-210.0,,
1349.252,-210.0,,
1349.267,-75.65,,
1349.282,-210.0,,
1349.297,-210.0,,
1349.313,-210.0,,
1349.328,-210.0,,
1349.343,-210.0,,
1349.357,-210.0,,
1349.372,-210.0,,
1349.387,-210.0,,
1349.402,-210.0,,
1349.417,-210.0,,
1349.432,-210.0,,
1349.448,-210.0,,
1349.463,-210.0,,
1349.478,-210.0,,
1349.492,-210.0,,
1349.507,-210.0,,
1349.522,-210.0,,
1349.537,-210.0,,
1349.552,-210.0,,
1349.568,-210.0,,
1349.583,-210.0,,
1349.598,-210.0,,
1349.613,-210.0,,
1349.628,-210.0,,
1349.642,-210.0,,
1349.657,-210.0,,
1349.672,-210.0,,
1349.688,-210.0,,
1349.703,-210.0,,
1349.718,-210.0,,
1349.733,-85.92,,
1349.748,-210.0,,
1349.763,-210.0,,
1349.777,-73.16,,
1349.792,-210.0,,
1349.807,-210.0,,
1349.823,-210.0,,
1349.838,-70.43,,
1349.853,-210.0,,
1349.868,-70.53,,
1349.883,-66.57,,
1349.898,-70.77,,
1349.913,-82.53,,
1349.927,-67.23,,
1349.943,-210.0,,
1349.958,-210.0,,
1349.973,-67.89,,
1349.988,-69.63,,
1350.003,-210.0,,
1350.018,-73.04,,
1350.033,-67.98,,
1350.048,-75.65,,
1350.063,-210.0,,
1350.078,-74.01,,
1350.093,-70.1,,
1350.108,-210.0,,
1350.123,-210.0,,
1350.138,-67.56,,
1350.153,-67.44,,
1350.168,-66.61,,
1350.183,-64.2,,
1350.198,-66.23,,
1350.213,-68.93,,
1350.228,-65.03,,
1350.243,-64.05,,
1350.258,-66.6,,
1350.273,-68.13,,
1350.288,-65.14,,
1350.303,-65.26,,
1350.318,-69.64,,
1350.333,-67.78,,
1350.348,-65.65,,
1350.363,-67.97,,
1350.378,-73.89,,
1350.393,-69.94,,
1350.408,-70.3,,
1350.423,-70.62,,
1350.438,-70.37,,
1350.453,-67.95,,
1350.468,-69.65,,
1350.483,-70.74,,
1350.498,-65.95,,
1350.513,-72.9,,
1350.528,-78.83,,
1350.543,-69.19,,
1350.558,-69.46,,
1350.573,-210.0,,
1350.588,-210.0,,
1350.603,-68.99,,
1350.618,-77.73,,
1350.633,-210.0,,
1350.648,-210.0,,
1350.663,-210.0,,
1350.678,-210.0,,
1350.693,-210.0,,
1350.708,-210.0,,
1350.723,-210.0,,
1350.738,-210.0,,
1350.753,-210.0,,
1350.768,-210.0,,
1350.783,-210.0,,
1350.798,-210.0,,
1350.813,-210.0,,
1350.828,-210.0,,
1350.843,-210.0,,
1350.858,-74.58,,
1350.873,-210.0,,
1350.888,-210.0,,
1350.903,-210.0,,
1350.918,-210.0,,
1350.933,-210.0,,
1350.948,-73.32,,
1350.963,-210.0,,
1350.978,-210.0,,
1350.993,-210.0,,
1351.008,-72.92,,
1351.023,-210.0,,
1351.038,-210.0,,
1351.053,-73.27,,
1351.068,-72.05,,
1351.083,-210.0,,
1351.098,-210.0,,
1351.113,-69.53,,
1351.128,-72.75,,
1351.143,-210.0,,
1351.158,-210.0,,
1351.173,-210.0,,
1351.188,-210.0,,
1351.203,-210.0,,
1351.218,-76.42,,
1351.233,-210.0,,
1351.248,-210.0,,
1351.263,-210.0,,
1351.278,-210.0,,
1351.293,-210.0,,
1351.308,-210.0,,
1351.323,-74.78,,
1351.338,-210.0,,
1351.353,-210.0,,
1351.368,-73.87,,
1351.383,-210.0,,
1351.398,-210.0,,
1351.413,-68.92,,
1351.428,-73.02,,
1351.443,-210.0,,
1351.458,-210.0,,
1351.473,-69.66,,
1351.488,-74.91,,
1351.503,-210.0,,
1351.518,-78.02,,
1351.533,-210.0,,
1351.548,-210.0,,
1351.563,-210.0,,
1351.578,-210.0,,
1351.593,-210.0,,
1351.608,-210.0,,
1351.623,-210.0,,
1351.638,-210.0,,
1351.653,-210.0,,
1351.668,-70.9,,
1351.683,-70.69,,
1351.698,-210.0,,
1351.713,-210.0,,
1351.728,-210.0,,
1351.743,-210.0,,
1351.758,-210.0,,
1351.773,-72.29,,
1351.788,-210.0,,
1351.803,-210.0,,
1351.818,-210.0,,
1351.833,-75.59,,
1351.848,-210.0,,
1351.863,-210.0,,
1351.878,-210.0,,
1351.893,-210.0,,
1351.908,-210.0,,
1351.923,-210.0,,
1351.938,-210.0,,
1351.953,-210.0,,
1351.968,-72.89,,
1351.983,-70.16,,
1351.998,-210.0,,
1352.013,-210.0,,
1352.028,-70.51,,
1352.043,-88.6,,
1352.058,-210.0,,
1352.073,-210.0,,
1352.088,-210.0,,
1352.103,-210.0,,
1352.118,-210.0,,
1352.133,-210.0,,
1352.148,-210.0,,
1352.163,-210.0,,
1352.178,-210.0,,
1352.193,-210.0,,
1352.208,-210.0,,
1352.223,-210.0,,
1352.238,-75.67,,
1352.253,-210.0,,
1352.268,-210.0,,
1352.283,-210.0,,
1352.298,-210.0,,
1352.313,-210.0,,
1352.328,-210.0,,
1352.343,-210.0,,
1352.358,-210.0,,
1352.373,-210.0,,
1352.388,-210.0,,
1352.403,-210.0,,
1352.418,-210.0,,
1352.433,-210.0,,
1352.448,-210.0,,
1352.463,-71.53,,
1352.478,-210.0,,
1352.493,-210.0,,
1352.508,-210.0,,
1352.523,-85.4,,
1352.538,-70.28,,
1352.553,-70.98,,
1352.568,-68.54,,
1352.583,-69.21,,
1352.598,-70.12,,
1352.613,-67.74,,
1352.628,-68.96,,
1352.643,-68.9,,
1352.658,-69.62,,
1352.673,-70.7,,
1352.688,-210.0,,
1352.703,-73.98,,
1352.718,-87.19,,
1352.733,-72.39,,
1352.748,-210.0,,
1352.763,-210.0,,
1352.778,-210.0,,
1352.793,-210.0,,
1352.808,-78.63,,
1352.823,-74.91,,
1352.838,-72.19,,
1352.853,-210.0,,
1352.868,-70.16,,
1352.883,-68.78,,
1352.898,-69.32,,
1352.913,-68.99,,
1352.928,-67.55,,
1352.943,-67.77,,
1352.958,-67.76,,
1352.973,-69.01,,
1352.988,-68.0,,
1353.003,-66.84,,
1353.018,-68.57,,
1353.033,-69.66,,
1353.048,-68.41,,
1353.063,-68.92,,
1353.078,-71.38,,
1353.093,-66.53,,
1353.108,-70.02,,
1353.123,-81.92,,
1353.138,-72.5,,
1353.153,-71.55,,
1353.168,-70.21,,
1353.183,-70.77,,
1353.198,-68.21,,
1353.213,-70.68,,
1353.228,-73.45,,
1353.243,-76.71,,
1353.258,-73.93,,
1353.273,-83.94,,
1353.288,-71.35,,
1353.303,-67.64,,
1353.318,-210.0,,
1353.333,-210.0,,
1353.348,-68.25,,
1353.363,-70.32,,
1353.378,-70.54,,
1353.393,-70.31,,
1353.408,-69.86,,
1353.423,-70.21,,
1353.438,-68.89,,
1353.453,-68.3,,
1353.468,-210.0,,
1353.483,-78.04,,
1353.498,-67.49,,
1353.513,-68.97,,
1353.528,-73.94,,
1353.543,-71.64,,
1353.558,-67.44,,
1353.573,-78.92,,
1353.588,-75.28,,
1353.603,-70.48,,
1353.618,-96.69,,
1353.633,-75.91,,
1353.648,-210.0,,
1353.663,-210.0,,
1353.678,-210.0,,
1353.693,-69.1,,
1353.708,-69.91,,
1353.723,-210.0,,
1353.738,-78.34,,
1353.753,-67.24,,
1353.768,-67.29,,
1353.783,-67.6,,
1353.798,-67.9,,
1353.813,-67.84,,
1353.828,-67.43,,
1353.843,-74.37,,
1353.858,-68.81,,
1353.873,-75.08,,
1353.888,-210.0,,
1353.903,-74.41,,
1353.918,-210.0,,
1353.933,-210.0,,
1353.948,-210.0,,
1353.963,-210.0,,
1353.978,-210.0,,
1353.993,-210.0,,
1354.008,-210.0,,
1354.023,-210.0,,
1354.038,-210.0,,
1354.053,-210.0,,
1354.068,-210.0,,
1354.083,-210.0,,
1354.098,-210.0,,
1354.113,-210.0,,
1354.128,-210.0,,
1354.143,-210.0,,
1354.158,-210.0,,
1354.173,-210.0,,
1354.188,-210.0,,
1354.203,-210.0,,
1354.218,-210.0,,
1354.233,-210.0,,
1354.248,-210.0,,
1354.263,-210.0,,
1354.278,-210.0,,
1354.293,-210.0,,
1354.308,-210.0,,
1354.323,-210.0,,
1354.338,-210.0,,
1354.353,-210.0,,
1354.368,-210.0,,
1354.383,-210.0,,
1354.398,-210.0,,
1354.413,-210.0,,
1354.428,-210.0,,
1354.443,-210.0,,
1354.458,-210.0,,
1354.473,-210.0,,
1354.488,-210.0,,
1354.503,-210.0,,
1354.518,-210.0,,
1354.533,-210.0,,
1354.548,-210.0,,
1354.563,-210.0,,
1354.578,-210.0,,
1354.593,-210.0,,
1354.608,-210.0,,
1354.623,-210.0,,
1354.638,-210.0,,
1354.653,-210.0,,
1354.668,-210.0,,
1354.683,-210.0,,
1354.698,-210.0,,
1354.713,-210.0,,
1354.728,-210.0,,
1354.743,-210.0,,
1354.758,-210.0,,
1354.773,-210.0,,
1354.788,-210.0,,
1354.803,-210.0,,
1354.818,-210.0,,
1354.833,-210.0,,
1354.848,-210.0,,
1354.863,-210.0,,
1354.878,-210.0,,
1354.893,-210.0,,
1354.908,-210.0,,
1354.923,-210.0,,
1354.938,-210.0,,
1354.953,-210.0,,
1354.968,-210.0,,
1354.983,-210.0,,
1354.998,-210.0,,
1355.013,-210.0,,
1355.028,-210.0,,
1355.043,-210.0,,
1355.058,-210.0,,
1355.073,-210.0,,
1355.088,-85.75,,
1355.103,-210.0,,
1355.118,-210.0,,
1355.133,-75.37,,
1355.148,-83.25,,
1355.163,-210.0,,
1355.178,-67.93,,
1355.193,-69.38,,
1355.208,-210.0,,
1355.223,-69.95,,
1355.238,-66.88,,
1355.253,-76.83,,
1355.268,-68.76,,
1355.283,-65.95,,
1355.298,-68.93,,
1355.313,-76.05,,
1355.328,-68.02,,
1355.343,-71.87,,
1355.358,-210.0,,
1355.373,-72.22,,
1355.388,-69.73,,
1355.403,-72.72,,
1355.418,-210.0,,
1355.433,-71.59,,
1355.448,-210.0,,
1355.463,-210.0,,
1355.478,-67.92,,
1355.493,-69.53,,
1355.508,-210.0,,
1355.523,-70.57,,
1355.538,-68.63,,
1355.553,-210.0,,
1355.568,-72.4,,
1355.583,-70.16,,
1355.598,-70.27,,
1355.613,-70.72,,
1355.628,-65.58,,
1355.643,-67.48,,
1355.658,-78.16,,
1355.673,-70.93,,
1355.688,-67.9,,
1355.703,-68.28,,
1355.718,-69.33,,
1355.733,-68.33,,
1355.748,-68.92,,
1355.763,-68.84,,
1355.778,-69.46,,
1355.793,-68.63,,
1355.808,-69.3,,
1355.823,-66.07,,
1355.838,-64.85,,
1355.853,-66.88,,
1355.868,-65.96,,
1355.883,-66.55,,
1355.898,-66.86,,
1355.913,-66.07,,
1355.928,-65.31,,
1355.943,-66.08,,
1355.958,-65.8,,
1355.973,-66.35,,
1355.988,-66.68,,
1356.003,-71.64,,
1356.018,-67.61,,
1356.033,-64.92,,
1356.048,-66.22,,
1356.063,-68.38,,
1356.078,-72.32,,
1356.093,-71.19,,
1356.108,-68.52,,
1356.123,-72.0,,
1356.138,-71.82,,
1356.153,-72.51,,
1356.168,-67.93,,
1356.183,-67.22,,
1356.198,-68.68,,
1356.213,-70.99,,
1356.228,-68.62,,
1356.243,-68.89,,
1356.258,-67.19,,
1356.273,-70.87,,
1356.288,-70.25,,
1356.303,-68.18,,
1356.318,-67.59,,
1356.333,-81.99,,
1356.348,-73.54,,
1356.363,-68.69,,
1356.378,-66.68,,
1356.393,-67.31,,
1356.408,-75.06,,
1356.423,-68.27,,
1356.438,-67.69,,
1356.453,-65.93,,
1356.468,-66.13,,
1356.483,-68.73,,
1356.498,-67.73,,
1356.513,-66.67,,
1356.528,-67.87,,
1356.543,-70.47,,
1356.558,-210.0,,
1356.573,-69.31,,
1356.588,-67.85,,
1356.603,-75.88,,
1356.618,-210.0,,
1356.633,-210.0,,
1356.648,-210.0,,
1356.663,-84.52,,
1356.678,-210.0,,
1356.693,-210.0,,
1356.708,-210.0,,
1356.723,-210.0,,
1356.738,-75.25,,
1356.753,-210.0,,
1356.768,-210.0,,
1356.783,-69.86,,
1356.798,-71.68,,
1356.813,-210.0,,
1356.828,-210.0,,
1356.843,-210.0,,
1356.858,-210.0,,
1356.873,-210.0,,
1356.888,-210.0,,
1356.903,-210.0,,
1356.918,-210.0,,
1356.933,-210.0,,
1356.948,-210.0,,
1356.963,-210.0,,
1356.978,-210.0,,
1356.993,-210.0,,
1357.008,-82.09,,
1357.023,-210.0,,
1357.038,-210.0,,
1357.053,-79.37,,
1357.068,-82.06,,
1357.083,-71.23,,
1357.098,-72.29,,
1357.113,-80.46,,
1357.128,-67.0,,
1357.143,-65.95,,
1357.158,-71.14,,
1357.173,-71.79,,
1357.188,-70.05,,
1357.203,-72.7,,
1357.219,-82.03,,
1357.233,-69.4,,
1357.248,-69.47,,
1357.263,-72.94,,
1357.278,-71.74,,
1357.293,-68.9,,
1357.308,-210.0,,
1357.323,-210.0,,
1357.339,-66.55,,
1357.354,-67.63,,
1357.369,-77.24,,
1357.383,-72.12,,
1357.398,-72.14,,
1357.413,-72.95,,
1357.428,-80.21,,
1357.443,-73.1,,
1357.458,-210.0,,
1357.474,-210.0,,
1357.489,-69.2,,
1357.504,-210.0,,
1357.518,-210.0,,
1357.533,-75.88,,
1357.548,-210.0,,
1357.563,-76.37,,
1357.578,-75.47,,
1357.594,-74.56,,
1357.609,-71.19,,
1357.624,-69.39,,
1357.639,-67.27,,
1357.654,-76.53,,
1357.668,-71.02,,
1357.683,-66.18,,
1357.698,-66.85,,
1357.714,-69.81,,
1357.729,-65.99,,
1357.744,-65.72,,
1357.759,-69.21,,
1357.774,-68.46,,
1357.789,-69.23,,
1357.803,-210.0,,
1357.818,-74.69,,
1357.833,-69.82,,
1357.849,-72.57,,
1357.864,-210.0,,
1357.879,-70.04,,
1357.894,-67.46,,
1357.909,-77.26,,
1357.924,-74.85,,
1357.939,-73.18,,
1357.953,-75.15,,
1357.969,-71.4,,
1357.984,-67.57,,
1357.999,-68.79,,
1358.014,-73.33,,
1358.029,-68.06,,
1358.044,-66.39,,
1358.059,-71.75,,
1358.074,-70.85,,
1358.089,-66.04,,
1358.104,-67.77,,
1358.119,-67.69,,
1358.134,-66.58,,
1358.149,-71.09,,
1358.164,-74.18,,
1358.179,-67.41,,
1358.194,-67.38,,
1358.209,-71.5,,
1358.224,-69.08,,
1358.239,-67.5,,
1358.254,-69.12,,
1358.269,-70.99,,
1358.284,-65.4,,
1358.299,-68.33,,
1358.314,-68.23,,
1358.329,-65.65,,
1358.344,-66.53,,
1358.359,-73.76,,
1358.374,-68.67,,
1358.389,-67.29,,
1358.404,-69.19,,
1358.419,-72.73,,
1358.434,-66.24,,
1358.449,-68.9,,
1358.464,-210.0,,
1358.479,-67.85,,
1358.494,-68.4,,
1358.509,-68.98,,
1358.524,-66.95,,
1358.539,-65.52,,
1358.554,-65.89,,
1358.569,-66.93,,
1358.584,-65.6,,
1358.599,-67.92,,
1358.614,-75.06,,
1358.629,-67.0,,
1358.644,-68.06,,
1358.659,-68.51,,
1358.674,-68.73,,
1358.689,-68.47,,
1358.704,-73.55,,
1358.719,-210.0,,
1358.734,-80.41,,
1358.749,-210.0,,
1358.764,-210.0,,
1358.779,-67.95,,
1358.794,-70.14,,
1358.809,-210.0,,
1358.824,-68.03,,
1358.839,-67.3,,
1358.854,-69.11,,
1358.869,-68.85,,
1358.884,-68.4,,
1358.899,-68.53,,
1358.914,-71.86,,
1358.929,-66.14,,
1358.944,-67.29,,
1358.959,-81.9,,
1358.974,-70.51,,
1358.989,-70.52,,
1359.004,-210.0,,
1359.019,-210.0,,
1359.034,-70.82,,
1359.049,-73.35,,
1359.064,-73.24,,
1359.079,-66.78,,
1359.094,-71.72,,
1359.109,-210.0,,
1359.124,-71.82,,
1359.139,-71.52,,
1359.154,-76.42,,
1359.169,-70.86,,
1359.184,-67.88,,
1359.199,-69.6,,
1359.214,-86.85,,
1359.229,-66.75,,
1359.244,-69.59,,
1359.259,-210.0,,
1359.274,-69.12,,
1359.289,-72.5,,
1359.304,-210.0,,
1359.319,-81.3,,
1359.334,-73.24,,
1359.349,-210.0,,
1359.364,-210.0,,
1359.379,-93.88,,
1359.394,-210.0,,
1359.409,-210.0,,
1359.424,-76.51,,
1359.439,-210.0,,
1359.454,-210.0,,
1359.469,-70.31,,
1359.484,-68.24,,
1359.499,-210.0,,
1359.514,-210.0,,
1359.529,-76.72,,
1359.544,-210.0,,
1359.559,-210.0,,
1359.574,-210.0,,
1359.589,-210.0,,
1359.604,-210.0,,
1359.619,-210.0,,
1359.634,-210.0,,
1359.649,-210.0,,
1359.664,-210.0,,
1359.679,-210.0,,
1359.694,-210.0,,
1359.709,-210.0,,
1359.724,-210.0,,
1359.739,-210.0,,
1359.754,-210.0,,
1359.769,-72.11,,
1359.784,-210.0,,
1359.799,-210.0,,
1359.814,-77.24,,
1359.829,-71.21,,
1359.844,-210.0,,
1359.859,-210.0,,
1359.874,-71.5,,
1359.889,-210.0,,
1359.904,-210.0,,
1359.919,-73.31,,
1359.934,-210.0,,
1359.949,-210.0,,
1359.964,-210.0,,
1359.979,-71.71,,
1359.994,-210.0,,
1360.009,-75.75,,
1360.024,-69.38,,
1360.039,-210.0,,
1360.054,-210.0,,
1360.069,-79.31,,
1360.084,-210.0,,
1360.099,-210.0,,
1360.114,-210.0,,
1360.129,-210.0,,
1360.144,-210.0,,
1360.159,-210.0,,
1360.174,-210.0,,
1360.189,-210.0,,
1360.204,-210.0,,
1360.219,-210.0,,
1360.234,-210.0,,
1360.249,-210.0,,
1360.264,-210.0,,
1360.279,-210.0,,
1360.294,-210.0,,
1360.309,-210.0,,
1360.324,-210.0,,
1360.339,-210.0,,
1360.354,-210.0,,
1360.369,-210.0,,
1360.384,-210.0,,
1360.399,-210.0,,
1360.414,-210.0,,
1360.429,-210.0,,
1360.444,-210.0,,
1360.459,-210.0,,
1360.474,-210.0,,
1360.489,-210.0,,
1360.504,-210.0,,
1360.519,-210.0,,
1360.534,-210.0,,
1360.549,-210.0,,
1360.564,-210.0,,
1360.579,-210.0,,
1360.594,-210.0,,
1360.609,-210.0,,
1360.624,-210.0,,
1360.639,-210.0,,
1360.654,-210.0,,
1360.669,-210.0,,
1360.684,-210.0,,
1360.699,-210.0,,
1360.714,-210.0,,
1360.729,-210.0,,
1360.744,-210.0,,
1360.759,-78.97,,
1360.774,-210.0,,
1360.789,-210.0,,
1360.804,-210.0,,
1360.819,-210.0,,
1360.834,-210.0,,
1360.849,-210.0,,
1360.864,-210.0,,
1360.879,-210.0,,
1360.894,-210.0,,
1360.909,-74.48,,
1360.924,-210.0,,
1360.939,-210.0,,
1360.954,-68.63,,
1360.969,-74.07,,
1360.984,-210.0,,
1360.999,-71.83,,
1361.014,-74.87,,
1361.029,-210.0,,
1361.044,-67.34,,
1361.059,-70.01,,
1361.074,-210.0,,
1361.089,-75.17,,
1361.104,-68.63,,
1361.119,-77.94,,
1361.134,-210.0,,
1361.149,-68.08,,
1361.164,-75.52,,
1361.179,-71.07,,
1361.194,-65.5,,
1361.209,-66.35,,
1361.224,-69.96,,
1361.239,-66.11,,
1361.254,-65.14,,
1361.269,-69.79,,
1361.284,-70.83,,
1361.299,-67.9,,
1361.314,-210.0,,
1361.329,-68.88,,
1361.344,-64.86,,
1361.359,-68.38,,
1361.374,-76.32,,
1361.389,-67.05,,
1361.404,-67.31,,
1361.419,-84.09,,
1361.434,-78.33,,
1361.449,-72.07,,
1361.464,-210.0,,
1361.479,-70.11,,
1361.494,-65.34,,
1361.509,-70.14,,
1361.524,-210.0,,
1361.539,-68.91,,
1361.554,-68.86,,
1361.569,-69.35,,
1361.584,-68.99,,
1361.599,-67.19,,
1361.614,-69.7,,
1361.629,-66.03,,
1361.644,-64.9,,
1361.659,-69.25,,
1361.674,-73.08,,
1361.689,-66.88,,
1361.704,-68.3,,
1361.719,-69.31,,
1361.734,-70.8,,
1361.749,-75.33,,
1361.764,-73.37,,
1361.779,-67.3,,
1361.794,-65.69,,
1361.809,-70.82,,
1361.824,-69.61,,
1361.839,-68.86,,
1361.854,-67.78,,
1361.869,-67.22,,
1361.884,-67.15,,
1361.899,-75.9,,
1361.914,-210.0,,
1361.929,-70.83,,
1361.944,-76.78,,
1361.959,-210.0,,
1361.974,-210.0,,
1361.989,-210.0,,
1362.004,-210.0,,
1362.019,-210.0,,
1362.034,-210.0,,
1362.049,-210.0,,
1362.064,-210.0,,
1362.079,-210.0,,
1362.094,-210.0,,
1362.109,-210.0,,
1362.124,-210.0,,
1362.139,-210.0,,
1362.154,-210.0,,
1362.169,-210.0,,
1362.184,-210.0,,
1362.199,-210.0,,
1362.214,-210.0,,
1362.229,-210.0,,
1362.244,-210.0,,
1362.259,-210.0,,
1362.274,-210.0,,
1362.289,-210.0,,
1362.304,-210.0,,
1362.319,-210.0,,
1362.334,-210.0,,
1362.349,-210.0,,
1362.364,-210.0,,
1362.379,-210.0,,
1362.394,-210.0,,
1362.409,-210.0,,
1362.424,-210.0,,
1362.439,-210.0,,
1362.454,-210.0,,
1362.469,-210.0,,
1362.484,-210.0,,
1362.499,-210.0,,
1362.514,-210.0,,
1362.529,-210.0,,
1362.544,-210.0,,
1362.559,-210.0,,
1362.574,-210.0,,
1362.589,-210.0,,
1362.604,-210.0,,
1362.619,-210.0,,
1362.634,-210.0,,
1362.649,-210.0,,
1362.664,-210.0,,
1362.679,-210.0,,
1362.694,-210.0,,
1362.709,-210.0,,
1362.724,-210.0,,
1362.739,-210.0,,
1362.754,-210.0,,
1362.769,-210.0,,
1362.784,-210.0,,
1362.799,-210.0,,
1362.814,-210.0,,
1362.829,-210.0,,
1362.844,-210.0,,
1362.859,-210.0,,
1362.874,-210.0,,
1362.889,-210.0,,
1362.904,-210.0,,
1362.919,-210.0,,
1362.934,-210.0,,
1362.949,-210.0,,
1362.964,-210.0,,
1362.979,-210.0,,
1362.994,-210.0,,
1363.009,-210.0,,
1363.024,-210.0,,
1363.039,-210.0,,
1363.054,-210.0,,
1363.069,-210.0,,
1363.084,-210.0,,
1363.099,-210.0,,
1363.114,-210.0,,
1363.129,-210.0,,
1363.144,-210.0,,
1363.159,-210.0,,
1363.174,-210.0,,
1363.189,-210.0,,
1363.204,-210.0,,
1363.219,-210.0,,
1363.234,-210.0,,
1363.249,-210.0,,
1363.264,-210.0,,
1363.279,-210.0,,
1363.294,-210.0,,
1363.309,-210.0,,
1363.324,-210.0,,
1363.339,-210.0,,
1363.354,-210.0,,
1363.369,-210.0,,
1363.384,-210.0,,
1363.399,-75.32,,
1363.414,-210.0,,
1363.429,-210.0,,
1363.444,-75.77,,
1363.459,-77.86,,
1363.474,-210.0,,
1363.489,-210.0,,
1363.504,-75.26,,
1363.519,-210.0,,
1363.534,-70.54,,
1363.549,-68.33,,
1363.564,-210.0,,
1363.579,-210.0,,
1363.594,-71.39,,
1363.609,-210.0,,
1363.624,-210.0,,
1363.639,-77.17,,
1363.654,-210.0,,
1363.669,-210.0,,
1363.684,-71.24,,
1363.699,-71.93,,
1363.714,-210.0,,
1363.729,-210.0,,
1363.744,-71.99,,
1363.759,-210.0,,
1363.774,-210.0,,
1363.789,-72.66,,
1363.804,-210.0,,
1363.819,-210.0,,
1363.834,-72.41,,
1363.849,-74.27,,
1363.864,-210.0,,
1363.879,-210.0,,
1363.894,-70.49,,
1363.909,-210.0,,
1363.924,-210.0,,
1363.939,-210.0,,
1363.954,-210.0,,
1363.969,-210.0,,
1363.984,-210.0,,
1363.999,-210.0,,
1364.014,-210.0,,
1364.029,-210.0,,
1364.044,-75.05,,
1364.059,-210.0,,
1364.074,-76.42,,
1364.089,-72.08,,
1364.104,-210.0,,
1364.119,-210.0,,
1364.134,-68.32,,
1364.149,-79.61,,
1364.164,-80.01,,
1364.179,-68.13,,
1364.194,-69.31,,
1364.209,-69.55,,
1364.224,-65.23,,
1364.239,-65.27,,
1364.254,-68.55,,
1364.269,-68.7,,
1364.284,-67.34,,
1364.299,-69.02,,
1364.314,-68.37,,
1364.329,-67.78,,
1364.344,-210.0,,
1364.359,-210.0,,
1364.374,-68.87,,
1364.389,-70.04,,
1364.404,-210.0,,
1364.419,-210.0,,
1364.434,-210.0,,
1364.449,-210.0,,
1364.464,-210.0,,
1364.479,-72.75,,
1364.494,-210.0,,
1364.509,-210.0,,
1364.524,-210.0,,
1364.539,-210.0,,
1364.554,-210.0,,
1364.569,-210.0,,
1364.584,-210.0,,
1364.599,-210.0,,
1364.614,-71.39,,
1364.629,-70.42,,
1364.644,-210.0,,
1364.659,-75.05,,
1364.674,-76.72,,
1364.689,-210.0,,
1364.704,-79.91,,
1364.719,-76.43,,
1364.734,-86.96,,
1364.749,-79.36,,
1364.764,-68.08,,
1364.779,-70.33,,
1364.794,-69.35,,
1364.809,-70.2,,
1364.824,-69.52,,
1364.839,-68.41,,
1364.854,-70.37,,
1364.869,-70.1,,
1364.884,-210.0,,
1364.899,-210.0,,
1364.914,-210.0,,
1364.929,-210.0,,
1364.944,-210.0,,
1364.959,-210.0,,
1364.974,-210.0,,
1364.989,-210.0,,
1365.004,-210.0,,
1365.019,-210.0,,
1365.034,-210.0,,
1365.049,-210.0,,
1365.064,-210.0,,
1365.079,-210.0,,
1365.094,-210.0,,
1365.109,-210.0,,
1365.124,-210.0,,
1365.139,-210.0,,
1365.154,-210.0,,
1365.169,-210.0,,
1365.184,-210.0,,
1365.199,-210.0,,
1365.214,-210.0,,
1365.229,-210.0,,
1365.245,-210.0,,
1365.259,-210.0,,
1365.274,-210.0,,
1365.289,-210.0,,
1365.304,-210.0,,
1365.319,-210.0,,
1365.334,-210.0,,
1365.349,-210.0,,
1365.365,-210.0,,
1365.38,-210.0,,
1365.395,-210.0,,
1365.409,-210.0,,
1365.424,-210.0,,
1365.439,-210.0,,
1365.454,-210.0,,
1365.469,-210.0,,
1365.484,-210.0,,
1365.5,-210.0,,
1365.515,-210.0,,
1365.53,-210.0,,
1365.544,-210.0,,
1365.559,-210.0,,
1365.574,-210.0,,
1365.589,-210.0,,
1365.604,-210.0,,
1365.62,-210.0,,
1365.635,-210.0,,
1365.65,-210.0,,
1365.665,-210.0,,
1365.68,-74.08,,
1365.694,-210.0,,
1365.709,-210.0,,
1365.724,-210.0,,
1365.74,-77.99,,
1365.755,-73.72,,
1365.77,-78.27,,
1365.785,-210.0,,
1365.8,-210.0,,
1365.815,-210.0,,
1365.83,-210.0,,
1365.844,-210.0,,
1365.859,-210.0,,
1365.875,-210.0,,
1365.89,-210.0,,
1365.905,-210.0,,
1365.92,-74.72,,
1365.935,-72.36,,
1365.95,-210.0,,
1365.965,-210.0,,
1365.979,-210.0,,
1365.995,-72.38,,
1366.01,-71.03,,
1366.025,-71.18,,
1366.04,-210.0,,
1366.055,-210.0,,
1366.07,-72.14,,
1366.085,-210.0,,
1366.1,-76.41,,
1366.115,-210.0,,
1366.13,-210.0,,
1366.145,-210.0,,
1366.16,-71.89,,
1366.175,-210.0,,
1366.19,-210.0,,
1366.205,-73.59,,
1366.22,-76.33,,
1366.235,-75.18,,
1366.25,-210.0,,
1366.265,-84.79,,
1366.28,-210.0,,
1366.295,-210.0,,
1366.31,-71.05,,
1366.325,-210.0,,
1366.34,-210.0,,
1366.355,-210.0,,
1366.37,-210.0,,
1366.385,-210.0,,
1366.4,-74.31,,
1366.415,-210.0,,
1366.43,-210.0,,
1366.445,-210.0,,
1366.46,-210.0,,
1366.475,-210.0,,
1366.49,-210.0,,
1366.505,-210.0,,
1366.52,-210.0,,
1366.535,-210.0,,
1366.55,-210.0,,
1366.565,-210.0,,
1366.58,-210.0,,
1366.595,-210.0,,
1366.61,-210.0,,
1366.625,-210.0,,
1366.64,-210.0,,
1366.655,-210.0,,
1366.67,-210.0,,
1366.685,-210.0,,
1366.7,-210.0,,
1366.715,-77.59,,
1366.73,-210.0,,
1366.745,-210.0,,
1366.76,-210.0,,
1366.775,-210.0,,
1366.79,-210.0,,
1366.805,-210.0,,
1366.82,-210.0,,
1366.835,-210.0,,
1366.85,-210.0,,
1366.865,-69.22,,
1366.88,-70.92,,
1366.895,-72.54,,
1366.91,-68.66,,
1366.925,-70.18,,
1366.94,-210.0,,
1366.955,-66.91,,
1366.97,-72.01,,
1366.985,-73.51,,
1367.0,-70.82,,
1367.015,-72.76,,
1367.03,-83.42,,
1367.045,-71.66,,
1367.06,-69.66,,
1367.075,-210.0,,
1367.09,-73.71,,
1367.105,-72.06,,
1367.12,-75.68,,
1367.135,-71.17,,
1367.15,-69.74,,
1367.165,-72.41,,
1367.18,-69.39,,
1367.195,-65.03,,
1367.21,-68.64,,
1367.225,-70.36,,
1367.24,-69.36,,
1367.255,-69.12,,
1367.27,-67.96,,
1367.285,-69.06,,
1367.3,-68.97,,
1367.315,-210.0,,
1367.33,-74.89,,
1367.345,-73.21,,
1367.36,-77.34,,
1367.375,-77.22,,
1367.39,-71.15,,
1367.405,-73.88,,
1367.42,-71.04,,
1367.435,-66.95,,
1367.45,-70.14,,
1367.465,-69.93,,
1367.48,-70.23,,
1367.495,-69.79,,
1367.51,-71.46,,
1367.525,-73.1,,
1367.54,-72.34,,
1367.555,-210.0,,
1367.57,-73.15,,
1367.585,-78.73,,
1367.6,-210.0,,
1367.615,-210.0,,
1367.63,-210.0,,
1367.645,-210.0,,
1367.66,-210.0,,
1367.675,-82.96,,
1367.69,-210.0,,
1367.705,-210.0,,
1367.72,-210.0,,
1367.735,-210.0,,
1367.75,-210.0,,
1367.765,-79.09,,
1367.78,-210.0,,
1367.795,-210.0,,
1367.81,-210.0,,
1367.825,-210.0,,
1367.84,-210.0,,
1367.855,-210.0,,
1367.87,-210.0,,
1367.885,-210.0,,
1367.9,-210.0,,
1367.915,-210.0,,
1367.93,-210.0,,
1367.945,-210.0,,
1367.96,-210.0,,
1367.975,-210.0,,
1367.99,-210.0,,
1368.005,-210.0,,
1368.02,-210.0,,
1368.035,-210.0,,
1368.05,-210.0,,
1368.065,-210.0,,
1368.08,-210.0,,
1368.095,-210.0,,
1368.11,-210.0,,
1368.125,-210.0,,
1368.14,-210.0,,
1368.155,-210.0,,
1368.17,-210.0,,
1368.185,-210.0,,
1368.2,-210.0,,
1368.215,-210.0,,
1368.23,-210.0,,
1368.245,-210.0,,
1368.26,-210.0,,
1368.275,-210.0,,
1368.29,-210.0,,
1368.305,-210.0,,
1368.32,-210.0,,
1368.335,-210.0,,
1368.35,-210.0,,
1368.365,-210.0,,
1368.38,-210.0,,
1368.395,-210.0,,
1368.41,-210.0,,
1368.425,-210.0,,
1368.44,-210.0,,
1368.455,-210.0,,
1368.47,-210.0,,
1368.485,-210.0,,
1368.5,-210.0,,
1368.515,-210.0,,
1368.53,-210.0,,
1368.545,-210.0,,
1368.56,-210.0,,
1368.575,-210.0,,
1368.59,-210.0,,
1368.605,-210.0,,
1368.62,-210.0,,
1368.635,-210.0,,
1368.65,-210.0,,
1368.665,-210.0,,
1368.68,-210.0,,
1368.695,-210.0,,
1368.71,-210.0,,
1368.725,-210.0,,
1368.74,-210.0,,
1368.755,-210.0,,
1368.77,-210.0,,
1368.785,-210.0,,
1368.8,-210.0,,
1368.815,-210.0,,
1368.83,-210.0,,
1368.845,-210.0,,
1368.86,-210.0,,
1368.875,-210.0,,
1368.89,-210.0,,
1368.905,-210.0,,
1368.92,-210.0,,
1368.935,-210.0,,
1368.95,-210.0,,
1368.965,-210.0,,
1368.98,-210.0,,
1368.995,-210.0,,
1369.01,-210.0,,
1369.025,-210.0,,
1369.04,-210.0,,
1369.055,-210.0,,
1369.07,-210.0,,
1369.085,-210.0,,
1369.1,-210.0,,
1369.115,-210.0,,
1369.13,-210.0,,
1369.145,-210.0,,
1369.16,-210.0,,
1369.175,-210.0,,
1369.19,-210.0,,
1369.205,-210.0,,
1369.22,-210.0,,
1369.235,-85.05,,
1369.25,-210.0,,
1369.265,-210.0,,
1369.28,-210.0,,
1369.295,-210.0,,
1369.31,-210.0,,
1369.325,-210.0,,
1369.34,-210.0,,
1369.355,-210.0,,
1369.37,-210.0,,
1369.385,-210.0,,
1369.4,-210.0,,
1369.415,-210.0,,
1369.43,-210.0,,
1369.445,-210.0,,
1369.46,-69.78,,
1369.475,-70.43,,
1369.49,-210.0,,
1369.505,-210.0,,
1369.52,-210.0,,
1369.535,-210.0,,
1369.55,-85.97,,
1369.565,-71.83,,
1369.58,-210.0,,
1369.595,-210.0,,
1369.61,-80.23,,
1369.625,-70.19,,
1369.64,-69.62,,
1369.655,-72.11,,
1369.67,-101.58,,
1369.685,-210.0,,
1369.7,-68.57,,
1369.715,-70.69,,
1369.73,-210.0,,
1369.745,-210.0,,
1369.76,-210.0,,
1369.775,-210.0,,
1369.79,-210.0,,
1369.805,-210.0,,
1369.82,-210.0,,
1369.835,-210.0,,
1369.85,-80.91,,
1369.865,-77.52,,
1369.88,-71.14,,
1369.895,-68.37,,
1369.91,-74.56,,
1369.925,-210.0,,
1369.94,-69.31,,
1369.955,-69.4,,
1369.97,-79.42,,
1369.985,-210.0,,
1370.0,-210.0,,
